NAFC_Y2K_HEADER
40008008  49 20.51 -055 16.61 2001-11-14 15:35 0014 S0118 008 V CA-44-C        1
40008008 000070  8.00 A 10 #PTCSMOFLX----------            D 000 0000 0010 000 4
40008008                                                                       8
-- CHANNEL STATS -->
# span     scan =   1632.000,  1872.000
# span     pres =      0.118,    10.029
# span     temp =      4.865,     7.016
# span     cond =      2.826,     3.113
# span      sal =     29.135,    30.681
# span     sigt =     23.014,    24.077
# span      oxy =      6.915,     7.388
# span     flor =      1.750,     2.130
# span      par =     31.900,   186.190
# span    trans =     77.860,    80.370
-- END --
!! ACQUIRED USING >AQUIRE 3.65 Y2K(t90) AT 2001-11-14 17:37:54
cast 2  11/14 15:37:33  smpls 4129 to 6903  nv = 5  avg = 1  stp = switch off
-- HISTORY --> Mon Dec 17 16:29:05 2001
>SELECT_PROBE S
>READ # (DP) T C O L F X scan pres temp cond oxy par flor trans
>/* STABILIZE_RESTRICT USING= pres  15.0 5  */
>RESTRICT USING= pres 0.0 2000.0
>RESTRICT USING= cond 1.5 5.0
>RESTRICT USING= temp -2.0 30.0
>RESTRICT USING= scan 500.0 30000.0
>MEDIANFILTER pres 21 1
>MEDIANFILTER temp 21 1
>MEDIANFILTER cond 21 1
>MEDIANFILTER flor 21 1
>MEDIANFILTER par 21 1
>MEDIANFILTER oxy 21 1
>MEDIANFILTER trans 21 1
>SELECT_DN USING= pres
>SALINITY PRESSURE=pres CONDUCTIVITY=cond TEMPERATURE=temp RESULT=sal
>RESTRICT USING= sal 18.0 36.0
>MEDIANFILTER sal 21 1
>SIGMAT SALINITY=sal TEMPERATURE=temp RESULT=sigt
>MEDIANFILTER sigt 21 1
>HISTORY_ON
>WRITEFILE .p???? scan pres temp cond sal sigt oxy flor par trans
-- END --
 scan     pres     temp     cond      sal     sigt      oxy     flor      par    trans 
-- DATA --
 1632    0.118    4.865    2.826   29.163   23.065    7.026    1.750  186.190   78.160 
 1639    0.260    5.144    2.845   29.135   23.014    6.998    1.770  171.730   78.210 
 1642    0.401    5.332    2.870   29.253   23.088    6.969    1.770  166.140   78.240 
 1649    0.543    5.599    2.907   29.431   23.200    6.960    1.770  148.800   78.240 
 1654    0.684    5.718    2.926   29.535   23.269    6.960    1.830  142.380   78.240 
 1659    0.826    5.820    2.936   29.556   23.274    6.967    1.860  132.280   78.210 
 1663    0.968    5.917    2.954   29.677   23.359    6.990    1.870  127.040   78.210 
 1667    1.109    5.938    2.961   29.730   23.398    7.086    1.880  118.910   78.160 
 1673    1.251    5.991    2.976   29.849   23.486    7.246    1.970  112.530   77.930 
 1678    1.392    6.047    2.984   29.897   23.517    7.354    2.060  108.470   77.900 
 1680    1.534    6.099    2.993   29.946   23.550    7.363    2.070  106.490   77.880 
 1684    1.675    6.122    2.999   29.987   23.579    7.372    2.100  102.650   77.860 
 1687    1.817    6.126    2.999   29.987   23.580    7.372    2.110  100.410   77.860 
 1691    1.958    6.132    2.999   29.991   23.582    7.372    2.110   96.430   77.880 
 1695    2.100    6.134    3.000   29.991   23.582    7.362    2.130   93.640   77.900 
 1699    2.242    6.196    3.014   30.091   23.645    7.319    2.120   90.930   77.950 
 1702    2.383    6.196    3.014   30.091   23.645    7.319    2.100   88.940   78.020 
 1705    2.525    6.279    3.025   30.093   23.653    7.307    2.100   87.970   78.210 
 1708    2.666    6.430    3.033   30.116   23.653    7.286    2.080   85.730   78.260 
 1712    2.808    6.430    3.043   30.135   23.658    7.286    2.040   83.560   78.400 
 1715    2.950    6.540    3.047   30.149   23.660    7.286    2.030   81.130   78.500 
 1718    3.091    6.793    3.064   30.202   23.668    7.269    1.980   79.660   78.730 
 1720    3.233    6.897    3.088   30.286   23.721    7.261    1.940   79.070   78.800 
 1725    3.374    7.016    3.110   30.410   23.804    7.146    1.900   77.070   79.180 
 1729    3.516    7.016    3.112   30.433   23.822    7.146    1.850   74.280   79.280 
 1732    3.657    7.016    3.112   30.435   23.823    7.146    1.810   72.930   79.420 
 1735    3.799    7.005    3.112   30.450   23.836    7.146    1.800   71.870   79.470 
 1737    3.941    6.986    3.112   30.467   23.852    7.248    1.790   70.560   79.470 
 1739    4.082    6.980    3.113   30.474   23.859    7.336    1.780   69.530   79.540 
 1742    4.224    6.974    3.113   30.480   23.864    7.388    1.770   69.020   79.680 
 1744    4.365    6.969    3.113   30.485   23.869    7.388    1.770   68.010   79.700 
 1748    4.507    6.954    3.113   30.497   23.880    7.388    1.770   66.530   79.750 
 1751    4.648    6.936    3.113   30.513   23.895    7.388    1.770   64.840   79.770 
 1753    4.790    6.894    3.111   30.534   23.916    7.339    1.770   63.890   79.850 
 1754    4.932    6.869    3.109   30.538   23.923    7.323    1.770   63.190   79.850 
 1758    5.073    6.789    3.103   30.540   23.934    7.256    1.770   61.590   80.110 
 1761    5.215    6.760    3.101   30.547   23.944    7.211    1.770   61.140   80.200 
 1763    5.356    6.741    3.101   30.558   23.955    7.197    1.760   59.800   80.320 
 1766    5.498    6.733    3.100   30.559   23.957    7.174    1.750   58.070   80.320 
 1769    5.640    6.716    3.099   30.564   23.963    7.161    1.750   57.430   80.370 
 1771    5.781    6.703    3.098   30.565   23.965    7.133    1.750   56.180   80.370 
 1776    5.923    6.673    3.097   30.574   23.976    7.080    1.750   54.750   80.370 
 1777    6.064    6.658    3.097   30.585   23.987    7.074    1.760   54.750   80.370 
 1780    6.206    6.641    3.095   30.585   23.989    7.057    1.760   52.780   80.370 
 1782    6.347    6.641    3.095   30.585   23.989    7.049    1.770   52.010   80.370 
 1785    6.489    6.641    3.095   30.585   23.989    7.046    1.780   51.440   80.370 
 1786    6.631    6.641    3.095   30.586   23.990    7.045    1.780   49.950   80.370 
 1791    6.772    6.653    3.101   30.634   24.025    7.036    1.780   48.500   80.370 
 1794    6.914    6.653    3.101   30.634   24.025    7.030    1.800   46.750   80.370 
 1796    7.197    6.653    3.101   30.634   24.026    7.030    1.810   46.580   80.370 
 1799    7.339    6.653    3.101   30.634   24.026    7.030    1.820   45.060   80.300 
 1801    7.480    6.630    3.101   30.654   24.044    7.030    1.820   44.900   80.080 
 1804    7.622    6.582    3.098   30.662   24.056    7.030    1.830   43.590   79.850 
 1807    7.763    6.576    3.097   30.663   24.058    7.043    1.840   42.490   79.700 
 1809    7.905    6.574    3.097   30.667   24.061    7.048    1.860   41.870   79.700 
 1813    8.047    6.567    3.097   30.668   24.063    7.053    1.930   40.060   79.700 
 1815    8.188    6.564    3.097   30.670   24.065    7.053    1.980   39.190   79.700 
 1817    8.330    6.564    3.097   30.671   24.065    7.053    2.020   38.900   79.750 
 1819    8.471    6.563    3.097   30.672   24.067    7.053    2.020   37.910   79.940 
 1821    8.613    6.562    3.097   30.672   24.067    7.038    2.020   37.500   80.080 
 1824    8.754    6.561    3.097   30.672   24.067    7.014    2.020   36.540   80.150 
 1826    8.896    6.556    3.097   30.676   24.071    7.004    2.020   36.140   80.180 
 1829    9.038    6.542    3.096   30.681   24.076    7.004    2.020   34.840   80.180 
 1831    9.179    6.538    3.096   30.681   24.077    7.004    2.000   34.580   80.180 
 1833    9.321    6.537    3.096   30.681   24.077    7.001    1.980   34.330   80.180 
 1835    9.462    6.537    3.096   30.681   24.077    7.000    1.960   34.080   80.180 
 1839    9.604    6.537    3.096   30.680   24.077    7.000    1.940   33.580   80.180 
 1845    9.746    6.537    3.096   30.680   24.076    7.000    1.940   32.970   79.990 
 1856    9.887    6.537    3.096   30.681   24.077    6.965    1.920   32.250   79.300 
 1872   10.029    6.538    3.096   30.680   24.076    6.915    1.920   31.900   78.780 
