NAFC_Y2K_HEADER
41073063  47  0.10 -052 52.10 1997-07-21 08:60 0031 S2248 063 V                1
41073063 000099  2.00 A 06 #PTCSM--------------            D 000 0000 0033 000 4
41073063 6 27 24    -999.9 -99.9 -99.9 01 03 18 01 03                          8
-- CHANNEL STATS -->
# span     scan =    511.000,   717.000
# span     pres =      3.690,    33.610
# span     temp =      0.478,     7.621
# span     cond =      2.750,     3.280
# span      sal =     31.650,    32.434
# span   sigmat =     24.741,    26.012
-- END --
cast 0  07/21  08:56:43   samples 0 to 951 sample rate = 1 scan every 0.5 seconds  stop = switch off
-- HISTORY --> Thu Nov  6 10:54:31 1997
>READ # (DP) T C scan pres temp cond
>STABILIZE_RESTRICT USING= pres 5.0
>RESTRICT USING= scan 10.0 99999.0
>RESTRICT USING= pres 0.0 2000.0
>RESTRICT USING= cond 2.0 5.0
>RESTRICT USING= temp -2.0 22.0
>MEDIANFILTER pres 7 1
>MEDIANFILTER temp 7 1
>MEDIANFILTER cond 7 1
>SELECT_DN USING= pres
>SALINITY PRESSURE=pres CONDUCTIVITY=cond TEMPERATURE=temp RESULT=sal
>RESTRICT USING= sal 28.0 36.0
>MEDIANFILTER sal 7 1
>SIGMAT SALINITY=sal TEMPERATURE=temp RESULT=sigt
>MEDIANFILTER sigt 7 1
>HISTORY_ON
>WRITEFILE  .p?? scan pres temp cond sal sigt
-- END --
-- HISTORY --> Sat Jan 29 13:29:03 2000
>REJECT_WITH O F
>READ # T (DP) C S M  scan temp pres cond sal sigmat
>HISTORY_ON
>SET_NEW_HEADER
>WRITEFILE .p???? scan pres temp cond sal sigmat
>END
-- END --
 scan     pres     temp     cond      sal   sigmat 
-- DATA --
  511    3.690    7.621    3.280   31.700   24.741 
  512    3.960    7.613    3.278   31.700   24.741 
  513    4.230    7.601    3.278   31.700   24.741 
  515    4.500    7.590    3.276   31.700   24.741 
  517    4.770    7.562    3.275   31.700   24.745 
  518    5.040    7.554    3.275   31.705   24.750 
  519    5.310    7.554    3.275   31.705   24.750 
  523    5.580    7.521    3.272   31.707   24.756 
  525    5.850    7.486    3.270   31.707   24.760 
  529    6.120    7.477    3.268   31.705   24.760 
  533    6.660    7.438    3.266   31.702   24.761 
  534    7.460    7.434    3.253   31.698   24.761 
  535    7.730    7.347    3.252   31.650   24.763 
  539    8.000    7.133    3.226   31.650   24.764 
  540    8.270    6.985    3.226   31.650   24.783 
  544    8.540    6.883    3.213   31.698   24.834 
  545    9.080    6.792    3.213   31.734   24.874 
  547    9.350    6.736    3.211   31.764   24.905 
  549    9.620    6.713    3.210   31.764   24.908 
  550    9.890    6.708    3.210   31.764   24.909 
  553   10.160    6.696    3.208   31.768   24.913 
  554   10.430    6.679    3.203   31.768   24.915 
  555   10.700    6.638    3.202   31.768   24.921 
  557   10.970    6.590    3.201   31.768   24.927 
  559   11.240    6.579    3.197   31.775   24.934 
  560   11.510    6.547    3.197   31.784   24.945 
  565   12.050    6.498    3.192   31.784   24.949 
  569   12.320    6.460    3.190   31.775   24.952 
  573   12.590    6.433    3.188   31.780   24.956 
  576   13.120    6.389    3.162   31.775   24.958 
  577   13.390    6.192    3.161   31.780   24.986 
  580   13.660    6.052    3.155   31.780   25.003 
  584   13.930    5.969    3.147   31.780   25.013 
  587   14.200    5.890    3.146   31.822   25.056 
  592   14.470    5.793    3.137   31.832   25.075 
  593   14.740    5.750    3.136   31.849   25.094 
  598   15.010    5.701    3.132   31.850   25.100 
  600   15.280    5.698    3.132   31.850   25.100 
  601   15.820    5.692    3.131   31.850   25.100 
  603   16.090    5.679    3.130   31.850   25.101 
  609   16.360    5.658    3.127   31.849   25.103 
  610   16.630    5.634    3.125   31.840   25.104 
  614   16.900    5.576    3.122   31.840   25.104 
  616   17.170    5.569    3.116   31.836   25.106 
  619   17.440    5.475    3.112   31.840   25.118 
  623   17.710    5.412    3.108   31.854   25.134 
  624   17.980    5.392    3.103   31.848   25.136 
  625   18.250    5.313    3.102   31.854   25.147 
  629   18.510    5.242    3.096   31.879   25.175 
  633   18.780    5.167    3.087   31.880   25.175 
  634   19.320    5.108    3.087   31.880   25.175 
  638   19.590    5.064    3.085   31.879   25.175 
  641   19.860    5.051    3.083   31.848   25.175 
  643   20.130    5.030    3.072   31.812   25.175 
  644   20.400    4.938    3.052   31.812   25.175 
  645   20.670    4.748    3.049   31.812   25.175 
  648   20.940    4.398    3.012   31.812   25.211 
  649   21.210    4.159    3.009   31.907   25.311 
  651   21.480    4.003    3.005   31.915   25.332 
  653   21.750    3.973    2.993   31.915   25.336 
  655   22.020    3.742    2.986   31.986   25.414 
  657   22.290    3.663    2.974   31.986   25.421 
  660   22.560    3.492    2.954   31.986   25.437 
  662   22.830    3.164    2.938   32.047   25.515 
  663   23.370    3.073    2.922   32.047   25.523 
  665   23.640    2.694    2.901   32.067   25.570 
  666   23.910    2.547    2.894   32.067   25.581 
  667   24.180    2.464    2.892   32.129   25.637 
  669   24.440    2.365    2.881   32.152   25.663 
  671   24.980    1.772    2.811   32.188   25.735 
  675   25.250    1.201    2.802   32.353   25.905 
  676   25.520    1.147    2.801   32.396   25.943 
  677   25.790    1.124    2.800   32.407   25.953 
  678   26.060    1.109    2.800   32.412   25.958 
  679   26.330    1.107    2.799   32.412   25.958 
  680   26.600    1.106    2.799   32.412   25.958 
  682   27.140    1.106    2.799   32.412   25.958 
  686   27.410    1.097    2.797   32.401   25.950 
  687   27.680    1.092    2.797   32.396   25.946 
  689   27.950    1.090    2.796   32.393   25.944 
  691   28.490    1.087    2.796   32.390   25.942 
  692   28.760    1.084    2.795   32.383   25.939 
  693   29.030    1.070    2.793   32.383   25.938 
  694   29.300    1.059    2.793   32.383   25.938 
  697   29.570    1.039    2.791   32.383   25.937 
  698   29.840    1.029    2.791   32.378   25.937 
  699   30.100    1.018    2.790   32.378   25.936 
  700   30.370    1.015    2.787   32.352   25.928 
  701   30.640    0.988    2.781   32.352   25.928 
  703   30.910    0.865    2.772   32.352   25.928 
  704   31.180    0.804    2.769   32.352   25.928 
  705   31.450    0.740    2.767   32.381   25.955 
  707   31.720    0.682    2.766   32.386   25.962 
  708   31.990    0.676    2.765   32.419   25.989 
  710   32.260    0.636    2.759   32.419   25.989 
  711   32.800    0.585    2.758   32.426   26.000 
  713   33.070    0.579    2.757   32.419   25.995 
  715   33.340    0.551    2.752   32.384   25.967 
  717   33.610    0.478    2.750   32.434   26.012 
