NAFC_Y2K_HEADER
48100073  59 19.90 -060 20.70 2005-08-04 12:19 0477 S0847 52  t fish set 52    1
48100073 002721  1.00 A 06 #PTCSM--------------            B 000 0000 0431 000 4
48100073 8 05 01 02 1021.0 -00.0 -00.0 02 00 20 02 01                          8
-- CHANNEL STATS -->
# span     scan =    446.000,  3166.000
# span     pres =      0.781,   431.945
# span     temp =     -0.009,     3.903
# span     cond =      2.756,     3.218
# span      sal =     32.297,    34.783
# span     sigt =     25.667,    27.863
-- END --
!! ACQUIRED USING > AQUIRE 4.011     AT 2005-08-04 12:53:46
cast 0  08/04  11:55:33   samples 0 to 3374  stop = switch off
-- HISTORY --> Thu Sep 22 12:14:25 2005
>READ # (DP) T C scan pres temp cond
>STABILIZE_RESTRICT USING= pres 15.0 5
>RESTRICT USING= pres 0.0 2000.0
>RESTRICT USING= cond 2.0 5.0
>RESTRICT USING= temp -2.0 22.0
>MEDIANFILTER pres 7 1
>MEDIANFILTER temp 7 1
>MEDIANFILTER cond 7 1
>SALINITY PRESSURE=pres CONDUCTIVITY=cond TEMPERATURE=temp RESULT=sal
>RESTRICT USING= sal 28.0 36.0
>MEDIANFILTER sal 7 1
>SIGMAT SALINITY=sal TEMPERATURE=temp RESULT=sigt
>MEDIANFILTER sigt 7 1
>HISTORY_ON
>WRITEFILE  .p???? scan pres temp cond sal sigt
-- END --
 scan     pres     temp     cond      sal     sigt 
-- DATA --
  446    9.953    3.261    2.978   32.441   25.820 
  447    9.953    3.313    2.980   32.409   25.790 
  448    9.953    3.324    2.980   32.406   25.786 
  449    9.953    3.342    2.984   32.406   25.785 
  450    9.953    3.402    2.986   32.393   25.770 
  451    9.953    3.414    2.987   32.393   25.768 
  452    9.953    3.422    2.988   32.393   25.767 
  453    9.953    3.432    2.988   32.391   25.764 
  454    9.953    3.470    2.990   32.379   25.752 
  455    9.953    3.533    2.991   32.319   25.698 
  456    9.953    3.533    2.991   32.319   25.698 
  457    9.953    3.533    2.991   32.319   25.698 
  458    9.953    3.533    2.990   32.319   25.698 
  459    9.953    3.459    2.986   32.335   25.718 
  460    9.953    3.340    2.981   32.335   25.729 
  461    9.953    3.247    2.977   32.401   25.790 
  462    9.953    3.187    2.972   32.441   25.827 
  463    9.953    3.145    2.959   32.446   25.834 
  464   10.223    2.974    2.959   32.463   25.863 
  465   10.223    2.918    2.951   32.489   25.888 
  466   10.493    2.855    2.949   32.491   25.895 
  467   10.493    2.834    2.947   32.491   25.897 
  468   10.763    2.818    2.946   32.490   25.897 
  469   11.033    2.813    2.945   32.490   25.897 
  470   11.302    2.809    2.945   32.489   25.897 
  471   11.572    2.806    2.944   32.484   25.894 
  472   11.842    2.802    2.943   32.482   25.894 
  473   12.112    2.796    2.943   32.482   25.894 
  474   12.381    2.782    2.940   32.482   25.894 
  475   12.381    2.750    2.938   32.482   25.897 
  476   12.651    2.731    2.938   32.486   25.901 
  477   13.191    2.731    2.938   32.486   25.901 
  478   13.191    2.731    2.938   32.486   25.901 
  479   13.730    2.731    2.938   32.486   25.902 
  480   14.000    2.726    2.938   32.491   25.906 
  481   14.540    2.725    2.938   32.491   25.906 
  482   15.079    2.725    2.938   32.491   25.906 
  483   15.619    2.702    2.937   32.504   25.918 
  484   16.158    2.661    2.934   32.513   25.928 
  485   16.158    2.625    2.933   32.526   25.942 
  486   16.428    2.599    2.931   32.528   25.946 
  487   16.698    2.572    2.929   32.536   25.954 
  488   16.698    2.561    2.928   32.538   25.956 
  489   16.968    2.550    2.927   32.540   25.959 
  490   17.237    2.539    2.927   32.541   25.961 
  491   17.237    2.531    2.926   32.541   25.962 
  492   17.507    2.525    2.926   32.542   25.963 
  493   17.777    2.518    2.925   32.544   25.965 
  494   18.047    2.493    2.922   32.546   25.969 
  495   18.586    2.440    2.920   32.559   25.983 
  496   19.126    2.412    2.918   32.566   25.991 
  497   19.665    2.391    2.917   32.574   25.999 
  498   20.205    2.368    2.916   32.575   26.002 
  499   20.475    2.355    2.914   32.583   26.009 
  500   20.744    2.305    2.911   32.590   26.018 
  501   20.744    2.272    2.909   32.590   26.021 
  502   21.014    2.225    2.906   32.611   26.041 
  503   21.284    2.184    2.903   32.613   26.046 
  504   21.554    2.149    2.901   32.618   26.052 
  505   21.824    2.108    2.898   32.628   26.064 
  506   21.824    2.078    2.897   32.642   26.077 
  507   22.363    2.049    2.895   32.642   26.079 
  508   22.633    2.049    2.895   32.642   26.079 
  509   23.442    2.049    2.895   32.644   26.079 
  510   23.712    2.049    2.894   32.644   26.079 
  511   24.252    2.033    2.893   32.639   26.079 
  512   24.791    2.023    2.893   32.636   26.079 
  513   25.061    2.020    2.892   32.636   26.079 
  514   25.600    2.020    2.891   32.639   26.079 
  515   25.870    1.966    2.887   32.644   26.087 
  516   26.410    1.892    2.883   32.652   26.099 
  517   26.680    1.864    2.881   32.660   26.107 
  518   26.680    1.831    2.877   32.666   26.114 
  519   27.219    1.766    2.875   32.689   26.138 
  520   27.219    1.728    2.874   32.707   26.155 
  521   27.759    1.713    2.873   32.713   26.160 
  522   27.759    1.703    2.871   32.713   26.161 
  523   28.028    1.673    2.870   32.715   26.165 
  524   28.028    1.652    2.868   32.715   26.166 
  525   28.568    1.623    2.865   32.715   26.168 
  526   29.107    1.594    2.863   32.719   26.173 
  527   29.377    1.549    2.861   32.733   26.188 
  528   29.647    1.496    2.857   32.736   26.193 
  529   29.917    1.467    2.856   32.742   26.200 
  530   30.187    1.464    2.856   32.757   26.212 
  531   30.456    1.443    2.853   32.758   26.215 
  532   30.996    1.389    2.849   32.758   26.219 
  533   31.266    1.362    2.849   32.757   26.219 
  534   31.805    1.327    2.844   32.757   26.221 
  535   32.615    1.268    2.837   32.758   26.226 
  536   33.154    1.139    2.827   32.763   26.238 
  537   33.154    1.048    2.822   32.763   26.244 
  538   33.424    0.965    2.816   32.780   26.263 
  539   33.963    0.874    2.811   32.803   26.286 
  540   34.503    0.808    2.808   32.833   26.314 
  541   34.773    0.748    2.803   32.837   26.321 
  542   35.043    0.658    2.797   32.851   26.338 
  543   35.312    0.609    2.795   32.869   26.355 
  544   35.852    0.593    2.793   32.873   26.359 
  545   36.391    0.563    2.791   32.875   26.362 
  546   36.931    0.530    2.790   32.877   26.365 
  547   37.201    0.529    2.789   32.876   26.366 
  548   37.471    0.525    2.788   32.877   26.366 
  549   38.010    0.500    2.786   32.883   26.372 
  550   38.280    0.488    2.785   32.883   26.373 
  551   38.550    0.458    2.783   32.883   26.375 
  552   39.089    0.440    2.782   32.884   26.376 
  553   39.359    0.421    2.780   32.884   26.377 
  554   40.168    0.385    2.779   32.884   26.379 
  555   40.708    0.359    2.775   32.885   26.381 
  556   41.247    0.312    2.771   32.885   26.384 
  557   41.787    0.264    2.767   32.889   26.389 
  558   42.327    0.219    2.764   32.889   26.391 
  559   42.596    0.200    2.764   32.909   26.408 
  560   43.136    0.193    2.764   32.916   26.415 
  561   43.676    0.193    2.764   32.916   26.415 
  562   43.945    0.193    2.764   32.920   26.418 
  563   44.215    0.193    2.765   32.932   26.428 
  564   44.755    0.199    2.766   32.933   26.428 
  565   45.024    0.205    2.767   32.937   26.431 
  566   45.294    0.209    2.767   32.941   26.434 
  567   45.564    0.214    2.768   32.946   26.438 
  568   45.834    0.216    2.769   32.948   26.439 
  569   46.373    0.217    2.769   32.949   26.440 
  570   46.643    0.222    2.770   32.953   26.443 
  571   47.183    0.225    2.770   32.954   26.443 
  572   47.452    0.226    2.770   32.956   26.445 
  573   47.722    0.227    2.770   32.957   26.446 
  574   48.262    0.229    2.771   32.958   26.447 
  575   49.071    0.231    2.771   32.958   26.447 
  576   49.341    0.233    2.771   32.961   26.449 
  577   50.150    0.234    2.772   32.963   26.450 
  578   50.420    0.236    2.772   32.963   26.450 
  579   50.960    0.236    2.772   32.963   26.450 
  580   51.229    0.237    2.772   32.963   26.450 
  581   51.499    0.238    2.772   32.960   26.448 
  582   51.769    0.238    2.772   32.960   26.447 
  583   52.039    0.239    2.772   32.958   26.446 
  584   52.848    0.243    2.772   32.953   26.442 
  585   53.388    0.249    2.772   32.949   26.439 
  586   53.927    0.251    2.772   32.947   26.437 
  587   54.467    0.251    2.772   32.947   26.437 
  588   54.467    0.251    2.772   32.947   26.437 
  589   55.276    0.251    2.772   32.947   26.437 
  590   55.546    0.241    2.771   32.947   26.437 
  591   56.355    0.225    2.771   32.961   26.449 
  592   56.895    0.212    2.771   32.974   26.460 
  593   57.434    0.195    2.771   32.992   26.475 
  594   57.974    0.188    2.771   32.999   26.482 
  595   59.053    0.183    2.771   33.011   26.491 
  596   59.593    0.176    2.771   33.019   26.499 
  597   60.132    0.170    2.772   33.030   26.508 
  598   60.672    0.169    2.772   33.033   26.510 
  599   61.211    0.168    2.772   33.036   26.512 
  600   61.481    0.166    2.772   33.038   26.514 
  601   62.021    0.163    2.772   33.041   26.517 
  602   62.290    0.155    2.772   33.049   26.524 
  603   62.560    0.147    2.772   33.058   26.531 
  604   63.100    0.139    2.772   33.060   26.533 
  605   63.370    0.127    2.771   33.062   26.536 
  606   63.909    0.126    2.771   33.068   26.540 
  607   64.449    0.111    2.771   33.076   26.547 
  608   64.718    0.109    2.770   33.076   26.547 
  609   64.718    0.106    2.770   33.076   26.548 
  610   65.258    0.102    2.770   33.077   26.549 
  611   66.067    0.097    2.769   33.077   26.549 
  612   66.607    0.088    2.769   33.078   26.550 
  613   67.147    0.071    2.768   33.079   26.552 
  614   67.686    0.056    2.767   33.086   26.559 
  615   68.226    0.052    2.767   33.087   26.560 
  616   68.495    0.046    2.766   33.087   26.560 
  617   69.035    0.044    2.766   33.089   26.561 
  618   69.575    0.038    2.766   33.090   26.562 
  619   70.114    0.038    2.766   33.090   26.563 
  620   70.924    0.034    2.766   33.091   26.564 
  621   71.193    0.029    2.765   33.091   26.564 
  622   71.733    0.025    2.765   33.091   26.564 
  623   72.542    0.021    2.765   33.093   26.566 
  624   73.082    0.019    2.765   33.093   26.566 
  625   73.352    0.016    2.765   33.096   26.568 
  626   73.621    0.014    2.765   33.097   26.569 
  627   74.431    0.013    2.764   33.097   26.570 
  628   75.240    0.012    2.764   33.098   26.570 
  629   76.049    0.011    2.764   33.098   26.570 
  630   76.859    0.004    2.764   33.104   26.576 
  631   77.129    0.000    2.765   33.111   26.581 
  632   77.938   -0.008    2.765   33.119   26.589 
  633   78.208   -0.008    2.765   33.121   26.590 
  634   78.747   -0.008    2.765   33.128   26.595 
  635   79.017   -0.008    2.766   33.132   26.599 
  636   79.557   -0.008    2.766   33.138   26.604 
  637   80.096   -0.008    2.766   33.142   26.607 
  638   80.366   -0.008    2.767   33.153   26.615 
  639   80.906   -0.008    2.768   33.159   26.620 
  640   81.445   -0.008    2.769   33.169   26.629 
  641   81.715   -0.009    2.769   33.179   26.637 
  642   82.255   -0.009    2.770   33.187   26.643 
  643   82.794   -0.009    2.771   33.200   26.654 
  644   83.873   -0.009    2.772   33.212   26.664 
  645   84.413   -0.009    2.773   33.221   26.670 
  646   85.222   -0.008    2.773   33.228   26.676 
  647   85.492   -0.006    2.774   33.232   26.679 
  648   85.762   -0.005    2.774   33.241   26.687 
  649   86.032   -0.005    2.775   33.247   26.692 
  650   86.571   -0.004    2.776   33.257   26.699 
  651   87.111    0.004    2.780   33.301   26.733 
  652   87.920    0.044    2.783   33.302   26.734 
  653   88.999    0.064    2.785   33.303   26.734 
  654   89.539    0.074    2.786   33.304   26.735 
  655   90.078    0.081    2.787   33.312   26.740 
  656   90.618    0.082    2.787   33.314   26.741 
  657   90.618    0.089    2.790   33.340   26.762 
  658   91.158    0.114    2.792   33.344   26.764 
  659   91.967    0.171    2.802   33.411   26.811 
  660   92.776    0.235    2.808   33.415   26.814 
  661   93.586    0.295    2.813   33.415   26.815 
  662   94.125    0.355    2.820   33.445   26.833 
  663   94.935    0.420    2.826   33.450   26.833 
  664   95.474    0.452    2.829   33.453   26.834 
  665   96.014    0.468    2.830   33.454   26.834 
  666   96.553    0.484    2.832   33.462   26.840 
  667   96.823    0.496    2.833   33.464   26.840 
  668   97.363    0.503    2.835   33.472   26.847 
  669   97.633    0.512    2.836   33.480   26.853 
  670   98.172    0.524    2.838   33.488   26.857 
  671   98.712    0.538    2.839   33.488   26.858 
  672   99.251    0.545    2.839   33.490   26.858 
  673   99.791    0.551    2.841   33.498   26.864 
  674  100.330    0.561    2.842   33.499   26.865 
  675  101.140    0.567    2.842   33.502   26.867 
  676  101.949    0.571    2.843   33.503   26.867 
  677  102.759    0.574    2.843   33.503   26.867 
  678  103.028    0.577    2.844   33.504   26.868 
  679  103.298    0.580    2.844   33.506   26.869 
  680  104.108    0.581    2.844   33.511   26.873 
  681  104.647    0.585    2.845   33.512   26.874 
  682  104.917    0.590    2.846   33.519   26.879 
  683  105.726    0.600    2.847   33.520   26.880 
  684  106.266    0.612    2.848   33.527   26.884 
  685  106.805    0.620    2.850   33.539   26.893 
  686  107.345    0.622    2.850   33.542   26.896 
  687  107.615    0.624    2.851   33.542   26.896 
  688  108.154    0.624    2.851   33.546   26.899 
  689  108.964    0.624    2.851   33.550   26.902 
  690  109.773    0.624    2.852   33.553   26.905 
  691  110.583    0.624    2.852   33.554   26.905 
  692  111.122    0.624    2.852   33.555   26.906 
  693  111.932    0.626    2.853   33.565   26.914 
  694  112.471    0.649    2.860   33.629   26.949 
  695  113.011    0.768    2.873   33.629   26.949 
  696  113.550    0.874    2.879   33.629   26.949 
  697  114.090    0.910    2.882   33.629   26.949 
  698  114.360    0.927    2.883   33.630   26.949 
  699  114.629    0.944    2.884   33.630   26.949 
  700  115.169    0.953    2.885   33.630   26.949 
  701  115.709    0.962    2.886   33.633   26.949 
  702  116.248    0.970    2.888   33.646   26.958 
  703  116.518    0.986    2.889   33.647   26.958 
  704  117.327    0.998    2.891   33.648   26.959 
  705  117.867    1.022    2.896   33.687   26.988 
  706  118.946    1.082    2.902   33.693   26.989 
  707  120.025    1.128    2.905   33.697   26.989 
  708  120.565    1.154    2.907   33.699   26.990 
  709  121.374    1.163    2.909   33.699   26.990 
  710  121.644    1.175    2.910   33.702   26.990 
  711  121.914    1.183    2.911   33.710   26.996 
  712  122.184    1.193    2.912   33.714   26.999 
  713  122.723    1.202    2.913   33.716   27.000 
  714  123.263    1.209    2.915   33.729   27.010 
  715  123.802    1.229    2.917   33.737   27.015 
  716  124.072    1.248    2.920   33.747   27.022 
  717  124.882    1.281    2.923   33.759   27.029 
  718  125.151    1.310    2.927   33.770   27.036 
  719  125.691    1.367    2.934   33.803   27.056 
  720  126.770    1.438    2.940   33.805   27.059 
  721  127.849    1.540    2.952   33.845   27.078 
  722  128.659    1.653    2.964   33.867   27.078 
  723  129.198    1.747    2.972   33.868   27.078 
  724  129.738    1.834    2.980   33.868   27.078 
  725  130.278    1.910    2.987   33.870   27.078 
  726  130.547    1.959    2.990   33.879   27.078 
  727  130.817    1.987    2.992   33.880   27.078 
  728  131.357    1.994    2.995   33.885   27.079 
  729  131.896    2.027    2.997   33.893   27.083 
  730  132.166    2.056    3.001   33.901   27.087 
  731  132.436    2.086    3.005   33.918   27.098 
  732  132.976    2.116    3.009   33.934   27.109 
  733  133.515    2.219    3.021   33.977   27.125 
  734  133.785    2.360    3.038   33.979   27.130 
  735  134.325    2.579    3.057   34.007   27.131 
  736  135.134    2.738    3.068   34.032   27.131 
  737  135.943    2.814    3.073   34.035   27.130 
  738  136.753    2.886    3.086   34.043   27.130 
  739  137.292    3.046    3.101   34.059   27.130 
  740  137.562    3.202    3.113   34.060   27.125 
  741  138.102    3.249    3.116   34.067   27.125 
  742  138.641    3.274    3.119   34.079   27.125 
  743  139.181    3.280    3.121   34.079   27.125 
  744  139.721    3.285    3.122   34.086   27.129 
  745  140.530    3.285    3.123   34.091   27.134 
  746  141.070    3.285    3.124   34.101   27.141 
  747  141.609    3.285    3.124   34.103   27.142 
  748  142.149    3.284    3.124   34.103   27.143 
  749  142.419    3.278    3.124   34.109   27.149 
  750  143.228    3.273    3.124   34.114   27.153 
  751  143.768    3.250    3.124   34.136   27.172 
  752  144.847    3.233    3.124   34.153   27.188 
  753  145.656    3.225    3.124   34.161   27.195 
  754  146.196    3.220    3.124   34.166   27.199 
  755  147.005    3.218    3.124   34.174   27.206 
  756  147.545    3.217    3.124   34.175   27.206 
  757  147.815    3.216    3.124   34.176   27.207 
  758  148.354    3.212    3.124   34.181   27.212 
  759  148.894    3.207    3.124   34.186   27.217 
  760  149.164    3.203    3.124   34.193   27.222 
  761  149.433    3.201    3.124   34.195   27.224 
  762  150.243    3.199    3.124   34.196   27.225 
  763  150.782    3.195    3.124   34.200   27.229 
  764  151.052    3.191    3.125   34.206   27.234 
  765  151.592    3.190    3.125   34.209   27.236 
  766  152.131    3.189    3.125   34.210   27.237 
  767  152.671    3.189    3.125   34.211   27.238 
  768  153.750    3.189    3.125   34.213   27.239 
  769  154.020    3.188    3.125   34.214   27.240 
  770  154.560    3.187    3.125   34.216   27.243 
  771  155.099    3.186    3.125   34.217   27.243 
  772  155.369    3.186    3.125   34.219   27.244 
  773  155.639    3.186    3.125   34.219   27.245 
  774  156.178    3.186    3.125   34.219   27.245 
  775  157.258    3.186    3.126   34.220   27.245 
  776  158.067    3.185    3.126   34.222   27.247 
  777  158.607    3.185    3.126   34.222   27.247 
  778  159.146    3.185    3.126   34.222   27.247 
  779  159.416    3.185    3.126   34.223   27.248 
  780  159.686    3.185    3.126   34.224   27.249 
  781  160.495    3.185    3.126   34.224   27.249 
  782  161.035    3.185    3.126   34.224   27.249 
  783  162.114    3.185    3.126   34.224   27.249 
  784  162.654    3.185    3.126   34.225   27.250 
  785  163.463    3.185    3.126   34.225   27.250 
  786  164.003    3.185    3.127   34.229   27.253 
  787  164.542    3.189    3.127   34.231   27.254 
  788  165.082    3.192    3.127   34.232   27.254 
  789  165.352    3.193    3.128   34.232   27.254 
  790  165.891    3.195    3.128   34.233   27.255 
  791  165.891    3.196    3.128   34.233   27.255 
  792  166.701    3.197    3.128   34.233   27.255 
  793  167.240    3.197    3.128   34.235   27.256 
  794  167.780    3.199    3.129   34.238   27.258 
  795  168.050    3.203    3.129   34.238   27.258 
  796  168.589    3.208    3.130   34.244   27.262 
  797  169.399    3.222    3.131   34.245   27.263 
  798  170.208    3.246    3.134   34.255   27.268 
  799  171.018    3.276    3.138   34.264   27.271 
  800  171.557    3.305    3.141   34.268   27.272 
  801  171.827    3.325    3.142   34.269   27.272 
  802  172.367    3.335    3.143   34.271   27.272 
  803  172.906    3.348    3.146   34.282   27.278 
  804  173.446    3.368    3.148   34.283   27.278 
  805  173.985    3.385    3.149   34.284   27.278 
  806  174.795    3.393    3.150   34.285   27.278 
  807  175.335    3.400    3.150   34.286   27.278 
  808  175.874    3.403    3.151   34.289   27.280 
  809  176.414    3.406    3.152   34.294   27.283 
  810  176.684    3.415    3.153   34.298   27.286 
  811  177.223    3.421    3.154   34.299   27.286 
  812  178.033    3.424    3.154   34.301   27.288 
  813  178.572    3.426    3.155   34.305   27.291 
  814  179.382    3.427    3.155   34.305   27.291 
  815  180.731    3.429    3.155   34.307   27.292 
  816  181.000    3.429    3.156   34.312   27.296 
  817  181.540    3.432    3.156   34.313   27.296 
  818  182.080    3.433    3.156   34.313   27.297 
  819  182.349    3.434    3.156   34.314   27.297 
  820  182.889    3.434    3.156   34.316   27.298 
  821  183.429    3.435    3.157   34.317   27.299 
  822  183.699    3.438    3.157   34.318   27.300 
  823  184.238    3.440    3.157   34.319   27.300 
  824  184.778    3.443    3.158   34.321   27.302 
  825  185.317    3.448    3.158   34.322   27.302 
  826  185.587    3.452    3.159   34.323   27.302 
  827  186.397    3.455    3.159   34.326   27.304 
  828  187.476    3.458    3.159   34.326   27.304 
  829  188.015    3.463    3.160   34.327   27.305 
  830  188.555    3.465    3.160   34.328   27.305 
  831  189.095    3.469    3.161   34.331   27.307 
  832  189.365    3.473    3.161   34.333   27.308 
  833  189.634    3.479    3.162   34.336   27.310 
  834  189.904    3.485    3.163   34.337   27.310 
  835  190.983    3.490    3.164   34.337   27.310 
  836  192.063    3.496    3.164   34.338   27.310 
  837  192.872    3.500    3.164   34.340   27.311 
  838  193.142    3.503    3.165   34.340   27.311 
  839  193.951    3.506    3.165   34.341   27.311 
  840  194.221    3.508    3.165   34.341   27.311 
  841  194.491    3.509    3.166   34.345   27.315 
  842  195.300    3.510    3.166   34.346   27.315 
  843  196.380    3.514    3.167   34.347   27.316 
  844  196.919    3.520    3.167   34.348   27.316 
  845  197.998    3.524    3.168   34.349   27.316 
  846  198.808    3.528    3.169   34.351   27.317 
  847  199.078    3.534    3.169   34.352   27.317 
  848  199.617    3.540    3.169   34.352   27.318 
  849  199.887    3.543    3.170   34.354   27.318 
  850  200.427    3.546    3.170   34.354   27.318 
  851  200.427    3.549    3.170   34.354   27.318 
  852  200.697    3.553    3.171   34.355   27.318 
  853  201.506    3.556    3.171   34.356   27.319 
  854  201.776    3.563    3.172   34.362   27.322 
  855  202.315    3.569    3.173   34.362   27.323 
  856  202.585    3.576    3.174   34.366   27.324 
  857  203.125    3.582    3.175   34.367   27.325 
  858  203.664    3.588    3.175   34.371   27.326 
  859  204.744    3.598    3.176   34.371   27.326 
  860  205.283    3.604    3.177   34.371   27.326 
  861  206.093    3.606    3.177   34.371   27.326 
  862  206.632    3.609    3.177   34.372   27.326 
  863  206.902    3.610    3.178   34.373   27.327 
  864  207.442    3.612    3.178   34.376   27.329 
  865  208.251    3.614    3.178   34.377   27.329 
  866  209.061    3.618    3.179   34.378   27.330 
  867  209.600    3.620    3.179   34.379   27.331 
  868  210.140    3.622    3.179   34.381   27.332 
  869  210.680    3.625    3.180   34.381   27.332 
  870  211.219    3.631    3.181   34.384   27.334 
  871  211.759    3.636    3.182   34.391   27.338 
  872  212.299    3.645    3.182   34.391   27.338 
  873  213.378    3.652    3.184   34.396   27.340 
  874  214.457    3.668    3.185   34.397   27.340 
  875  214.997    3.673    3.186   34.398   27.341 
  876  215.536    3.680    3.186   34.401   27.341 
  877  216.076    3.684    3.187   34.401   27.341 
  878  216.616    3.693    3.188   34.402   27.341 
  879  216.885    3.700    3.188   34.402   27.341 
  880  217.695    3.705    3.189   34.402   27.341 
  881  217.965    3.706    3.189   34.403   27.342 
  882  218.504    3.708    3.190   34.405   27.343 
  883  219.044    3.710    3.190   34.406   27.343 
  884  219.584    3.713    3.190   34.406   27.343 
  885  219.853    3.714    3.190   34.407   27.344 
  886  220.393    3.714    3.190   34.407   27.344 
  887  220.933    3.715    3.190   34.408   27.344 
  888  222.012    3.717    3.191   34.409   27.345 
  889  222.821    3.717    3.191   34.409   27.345 
  890  223.631    3.718    3.191   34.411   27.346 
  891  223.901    3.720    3.191   34.411   27.346 
  892  224.170    3.720    3.191   34.411   27.346 
  893  224.710    3.722    3.192   34.412   27.346 
  894  225.519    3.722    3.192   34.412   27.347 
  895  226.059    3.724    3.192   34.412   27.347 
  896  227.138    3.724    3.192   34.413   27.347 
  897  227.948    3.727    3.192   34.414   27.348 
  898  228.218    3.730    3.192   34.415   27.348 
  899  228.487    3.731    3.193   34.415   27.349 
  900  229.027    3.733    3.193   34.416   27.349 
  901  229.567    3.734    3.193   34.416   27.349 
  902  230.646    3.736    3.193   34.416   27.349 
  903  231.455    3.736    3.193   34.416   27.349 
  904  232.535    3.736    3.193   34.417   27.349 
  905  233.074    3.736    3.194   34.417   27.349 
  906  233.614    3.736    3.194   34.417   27.350 
  907  233.884    3.737    3.194   34.418   27.350 
  908  234.423    3.737    3.194   34.419   27.350 
  909  234.963    3.739    3.194   34.419   27.350 
  910  235.233    3.739    3.194   34.420   27.352 
  911  236.042    3.740    3.194   34.420   27.352 
  912  236.582    3.740    3.195   34.421   27.352 
  913  237.122    3.741    3.195   34.421   27.352 
  914  237.661    3.741    3.195   34.421   27.352 
  915  238.201    3.741    3.195   34.422   27.352 
  916  239.280    3.743    3.195   34.422   27.352 
  917  239.820    3.743    3.195   34.422   27.352 
  918  240.629    3.743    3.195   34.421   27.352 
  919  241.169    3.743    3.195   34.421   27.352 
  920  241.709    3.744    3.195   34.422   27.352 
  921  241.978    3.744    3.195   34.422   27.352 
  922  242.788    3.744    3.195   34.422   27.352 
  923  243.058    3.744    3.195   34.422   27.352 
  924  243.867    3.745    3.195   34.422   27.352 
  925  244.407    3.745    3.195   34.422   27.352 
  926  244.946    3.745    3.195   34.422   27.352 
  927  245.216    3.745    3.196   34.422   27.352 
  928  245.756    3.746    3.196   34.422   27.352 
  929  246.296    3.746    3.196   34.423   27.353 
  930  246.835    3.746    3.196   34.423   27.353 
  931  247.375    3.749    3.196   34.423   27.353 
  932  248.184    3.751    3.196   34.423   27.353 
  933  248.994    3.752    3.196   34.424   27.353 
  934  249.803    3.754    3.197   34.424   27.353 
  935  250.613    3.756    3.197   34.424   27.353 
  936  251.152    3.756    3.197   34.424   27.353 
  937  251.422    3.757    3.197   34.425   27.353 
  938  251.692    3.758    3.197   34.425   27.353 
  939  251.962    3.758    3.197   34.425   27.353 
  940  252.232    3.759    3.197   34.425   27.354 
  941  253.041    3.759    3.197   34.425   27.354 
  942  253.581    3.760    3.197   34.426   27.354 
  943  254.120    3.760    3.197   34.426   27.354 
  944  254.390    3.760    3.197   34.426   27.354 
  945  254.930    3.760    3.198   34.426   27.354 
  946  255.469    3.761    3.198   34.427   27.355 
  947  256.549    3.761    3.198   34.427   27.355 
  948  257.088    3.762    3.198   34.427   27.355 
  949  257.898    3.762    3.198   34.427   27.355 
  950  258.707    3.762    3.198   34.428   27.355 
  951  259.787    3.764    3.198   34.428   27.356 
  952  259.787    3.766    3.198   34.429   27.356 
  953  260.056    3.766    3.198   34.429   27.356 
  954  260.596    3.767    3.199   34.429   27.356 
  955  261.136    3.769    3.199   34.430   27.356 
  956  261.675    3.769    3.199   34.431   27.357 
  957  262.215    3.774    3.199   34.431   27.357 
  958  263.025    3.774    3.199   34.431   27.357 
  959  263.834    3.775    3.200   34.431   27.357 
  960  265.183    3.776    3.200   34.431   27.357 
  961  265.993    3.778    3.200   34.431   27.357 
  962  266.802    3.778    3.200   34.431   27.357 
  963  267.342    3.778    3.200   34.432   27.357 
  964  267.881    3.779    3.200   34.432   27.357 
  965  268.421    3.779    3.200   34.432   27.357 
  966  268.691    3.779    3.200   34.432   27.357 
  967  268.961    3.780    3.200   34.432   27.357 
  968  269.500    3.780    3.200   34.433   27.357 
  969  269.770    3.780    3.200   34.433   27.357 
  970  269.770    3.780    3.200   34.433   27.358 
  971  270.040    3.781    3.201   34.434   27.358 
  972  270.310    3.782    3.201   34.434   27.358 
  973  270.580    3.783    3.201   34.434   27.358 
  974  270.849    3.784    3.201   34.434   27.358 
  975  271.389    3.784    3.201   34.434   27.358 
  976  271.659    3.784    3.201   34.434   27.358 
  977  271.659    3.785    3.201   34.434   27.358 
  978  272.199    3.785    3.201   34.434   27.358 
  979  272.468    3.785    3.201   34.434   27.358 
  980  272.738    3.785    3.201   34.434   27.358 
  981  273.278    3.785    3.201   34.434   27.358 
  982  273.818    3.785    3.201   34.434   27.358 
  983  274.627    3.785    3.201   34.434   27.358 
  984  274.897    3.785    3.201   34.434   27.358 
  985  275.437    3.785    3.201   34.434   27.358 
  986  275.437    3.785    3.201   34.434   27.358 
  987  275.976    3.785    3.201   34.434   27.358 
  988  276.246    3.785    3.201   34.434   27.358 
  989  276.786    3.785    3.201   34.434   27.358 
  990  277.055    3.785    3.201   34.434   27.358 
  991  277.325    3.784    3.201   34.434   27.358 
  992  277.865    3.784    3.201   34.433   27.358 
  993  278.405    3.784    3.201   34.433   27.358 
  994  278.944    3.784    3.201   34.434   27.358 
  995  278.944    3.784    3.201   34.434   27.358 
  996  279.484    3.784    3.201   34.433   27.358 
  997  280.024    3.784    3.201   34.433   27.358 
  998  280.293    3.784    3.201   34.433   27.358 
  999  280.563    3.785    3.201   34.434   27.358 
 1000  280.833    3.785    3.201   34.435   27.358 
 1001  281.373    3.784    3.201   34.435   27.358 
 1002  281.912    3.784    3.202   34.434   27.358 
 1003  282.722    3.784    3.202   34.434   27.358 
 1004  283.531    3.784    3.202   34.434   27.358 
 1005  284.071    3.784    3.201   34.433   27.358 
 1006  284.611    3.783    3.201   34.433   27.358 
 1007  285.150    3.783    3.201   34.433   27.358 
 1008  285.420    3.783    3.201   34.433   27.358 
 1009  285.690    3.782    3.201   34.433   27.358 
 1010  285.960    3.782    3.201   34.433   27.358 
 1011  286.499    3.782    3.201   34.434   27.358 
 1012  286.499    3.782    3.201   34.434   27.358 
 1013  287.039    3.782    3.202   34.434   27.358 
 1014  287.309    3.783    3.202   34.433   27.358 
 1015  287.579    3.783    3.202   34.433   27.358 
 1016  288.388    3.783    3.202   34.433   27.358 
 1017  288.658    3.783    3.202   34.433   27.358 
 1018  288.928    3.783    3.202   34.433   27.357 
 1019  289.198    3.783    3.202   34.433   27.357 
 1020  289.737    3.783    3.202   34.433   27.357 
 1021  290.277    3.783    3.202   34.433   27.357 
 1022  290.547    3.783    3.202   34.433   27.357 
 1023  291.626    3.783    3.202   34.433   27.357 
 1024  292.166    3.783    3.202   34.433   27.357 
 1025  292.706    3.783    3.202   34.433   27.358 
 1026  292.706    3.783    3.202   34.433   27.358 
 1027  292.975    3.783    3.202   34.433   27.358 
 1028  293.245    3.783    3.202   34.434   27.358 
 1029  293.785    3.783    3.202   34.434   27.358 
 1030  294.325    3.783    3.202   34.434   27.358 
 1031  294.864    3.783    3.202   34.434   27.358 
 1032  295.674    3.783    3.202   34.433   27.358 
 1033  296.213    3.783    3.202   34.433   27.358 
 1034  296.753    3.783    3.202   34.433   27.358 
 1035  297.293    3.783    3.202   34.433   27.358 
 1036  297.563    3.783    3.202   34.434   27.358 
 1037  297.832    3.783    3.202   34.434   27.358 
 1038  298.102    3.783    3.202   34.434   27.358 
 1039  298.642    3.783    3.202   34.434   27.358 
 1040  299.182    3.783    3.202   34.434   27.358 
 1041  299.991    3.783    3.202   34.433   27.358 
 1042  300.531    3.783    3.202   34.433   27.357 
 1043  301.340    3.783    3.202   34.433   27.357 
 1044  301.880    3.784    3.202   34.433   27.357 
 1045  302.419    3.784    3.202   34.433   27.357 
 1046  302.689    3.784    3.202   34.433   27.357 
 1047  302.959    3.784    3.202   34.434   27.358 
 1048  303.499    3.784    3.202   34.434   27.358 
 1049  303.769    3.784    3.202   34.434   27.358 
 1050  304.308    3.784    3.202   34.434   27.358 
 1051  304.578    3.784    3.202   34.434   27.358 
 1052  304.578    3.784    3.202   34.434   27.358 
 1053  305.388    3.784    3.202   34.434   27.358 
 1054  305.657    3.784    3.203   34.434   27.358 
 1055  305.927    3.784    3.203   34.434   27.358 
 1056  306.467    3.784    3.203   34.434   27.358 
 1057  307.007    3.784    3.203   34.434   27.358 
 1058  307.276    3.784    3.203   34.434   27.358 
 1059  308.086    3.784    3.203   34.434   27.358 
 1060  308.626    3.784    3.203   34.434   27.358 
 1061  309.435    3.784    3.203   34.434   27.358 
 1062  309.705    3.784    3.203   34.434   27.358 
 1063  310.245    3.784    3.203   34.434   27.358 
 1064  310.514    3.784    3.203   34.435   27.359 
 1065  310.784    3.784    3.203   34.435   27.359 
 1066  311.324    3.784    3.203   34.435   27.359 
 1067  311.864    3.784    3.203   34.435   27.359 
 1068  312.403    3.786    3.203   34.435   27.359 
 1069  312.943    3.786    3.203   34.435   27.359 
 1070  313.483    3.786    3.203   34.436   27.359 
 1071  313.753    3.786    3.203   34.436   27.359 
 1072  314.292    3.786    3.203   34.436   27.359 
 1073  314.562    3.787    3.204   34.435   27.359 
 1074  315.102    3.789    3.204   34.435   27.359 
 1075  315.641    3.789    3.204   34.435   27.359 
 1076  315.911    3.789    3.204   34.435   27.358 
 1077  316.721    3.790    3.204   34.435   27.358 
 1078  317.530    3.790    3.204   34.435   27.358 
 1079  318.340    3.790    3.204   34.435   27.358 
 1080  318.879    3.790    3.204   34.435   27.358 
 1081  319.419    3.790    3.204   34.435   27.358 
 1082  319.689    3.790    3.204   34.435   27.358 
 1083  320.229    3.790    3.204   34.436   27.359 
 1084  320.498    3.789    3.204   34.436   27.359 
 1085  321.038    3.789    3.204   34.436   27.359 
 1086  321.308    3.789    3.204   34.436   27.359 
 1087  321.578    3.789    3.204   34.436   27.359 
 1088  321.848    3.789    3.204   34.436   27.359 
 1089  322.387    3.789    3.204   34.436   27.359 
 1090  322.657    3.789    3.204   34.435   27.359 
 1091  323.197    3.789    3.204   34.435   27.359 
 1092  323.467    3.789    3.204   34.435   27.359 
 1093  323.736    3.789    3.204   34.435   27.359 
 1094  323.736    3.790    3.204   34.435   27.359 
 1095  324.546    3.790    3.204   34.435   27.359 
 1096  324.816    3.790    3.204   34.435   27.359 
 1097  325.895    3.790    3.204   34.436   27.359 
 1098  326.435    3.790    3.204   34.436   27.359 
 1099  326.974    3.790    3.204   34.436   27.359 
 1100  327.244    3.790    3.204   34.436   27.359 
 1101  327.514    3.790    3.204   34.436   27.359 
 1102  327.784    3.790    3.204   34.436   27.359 
 1103  328.324    3.790    3.204   34.436   27.359 
 1104  328.594    3.790    3.204   34.436   27.359 
 1105  329.403    3.790    3.204   34.436   27.359 
 1106  329.943    3.790    3.204   34.436   27.359 
 1107  330.213    3.790    3.204   34.436   27.359 
 1108  331.022    3.790    3.204   34.436   27.359 
 1109  331.292    3.790    3.204   34.436   27.359 
 1110  331.562    3.790    3.204   34.435   27.359 
 1111  332.101    3.790    3.204   34.435   27.358 
 1112  332.641    3.790    3.204   34.435   27.358 
 1113  332.911    3.790    3.204   34.435   27.358 
 1114  333.720    3.790    3.204   34.435   27.358 
 1115  334.530    3.790    3.204   34.435   27.358 
 1116  335.339    3.790    3.205   34.435   27.358 
 1117  335.879    3.790    3.205   34.435   27.358 
 1118  336.419    3.790    3.205   34.435   27.358 
 1119  336.959    3.790    3.205   34.435   27.358 
 1120  337.228    3.790    3.205   34.435   27.358 
 1121  337.768    3.790    3.205   34.435   27.358 
 1122  338.038    3.790    3.205   34.435   27.358 
 1123  338.038    3.790    3.205   34.435   27.358 
 1124  338.578    3.790    3.205   34.435   27.358 
 1125  338.847    3.790    3.205   34.436   27.358 
 1126  339.657    3.790    3.205   34.436   27.358 
 1127  339.657    3.790    3.205   34.435   27.358 
 1128  340.197    3.791    3.205   34.435   27.358 
 1129  340.736    3.791    3.205   34.435   27.358 
 1130  341.006    3.791    3.205   34.435   27.358 
 1131  341.276    3.791    3.205   34.435   27.358 
 1132  341.816    3.791    3.205   34.435   27.358 
 1133  342.355    3.791    3.205   34.435   27.358 
 1134  343.165    3.792    3.205   34.435   27.358 
 1135  343.705    3.792    3.205   34.435   27.358 
 1136  343.974    3.792    3.205   34.435   27.358 
 1137  344.514    3.793    3.205   34.435   27.358 
 1138  344.784    3.793    3.205   34.435   27.358 
 1139  344.784    3.793    3.205   34.435   27.358 
 1140  345.593    3.793    3.205   34.435   27.358 
 1141  345.863    3.793    3.205   34.436   27.359 
 1142  346.403    3.793    3.205   34.436   27.359 
 1143  346.943    3.793    3.205   34.436   27.359 
 1144  347.212    3.793    3.205   34.436   27.359 
 1145  347.752    3.793    3.205   34.436   27.359 
 1146  348.022    3.793    3.205   34.436   27.358 
 1147  348.562    3.793    3.205   34.435   27.358 
 1148  348.832    3.794    3.206   34.435   27.358 
 1149  349.101    3.794    3.206   34.436   27.358 
 1150  349.641    3.794    3.206   34.436   27.358 
 1151  349.911    3.793    3.206   34.436   27.359 
 1152  350.451    3.793    3.206   34.436   27.359 
 1153  350.990    3.793    3.206   34.436   27.359 
 1154  351.530    3.793    3.206   34.436   27.359 
 1155  352.339    3.793    3.206   34.436   27.359 
 1156  352.879    3.793    3.206   34.436   27.359 
 1157  353.149    3.793    3.206   34.436   27.359 
 1158  353.689    3.793    3.206   34.436   27.359 
 1159  354.228    3.793    3.206   34.436   27.359 
 1160  354.498    3.793    3.206   34.436   27.359 
 1161  355.038    3.794    3.206   34.436   27.359 
 1162  355.308    3.794    3.206   34.436   27.359 
 1163  355.578    3.794    3.206   34.436   27.359 
 1164  355.847    3.795    3.206   34.436   27.359 
 1165  355.847    3.795    3.206   34.437   27.359 
 1166  356.387    3.795    3.206   34.437   27.359 
 1167  356.657    3.796    3.206   34.437   27.359 
 1168  357.197    3.798    3.207   34.439   27.360 
 1169  357.466    3.800    3.207   34.441   27.362 
 1170  358.006    3.804    3.208   34.444   27.364 
 1171  358.006    3.818    3.210   34.450   27.366 
 1172  358.276    3.840    3.211   34.451   27.366 
 1173  358.816    3.850    3.212   34.453   27.366 
 1174  359.086    3.853    3.212   34.453   27.366 
 1175  359.625    3.855    3.213   34.453   27.366 
 1176  360.165    3.859    3.213   34.453   27.366 
 1177  360.974    3.859    3.213   34.453   27.366 
 1178  360.974    3.859    3.213   34.453   27.366 
 1179  361.514    3.859    3.213   34.453   27.366 
 1180  361.784    3.859    3.213   34.453   27.366 
 1181  362.054    3.858    3.213   34.454   27.366 
 1182  362.054    3.858    3.213   34.454   27.366 
 1183  362.324    3.858    3.213   34.454   27.366 
 1184  362.863    3.858    3.213   34.454   27.366 
 1185  363.133    3.858    3.213   34.455   27.368 
 1186  363.403    3.857    3.213   34.455   27.368 
 1187  364.213    3.857    3.213   34.455   27.368 
 1188  364.752    3.857    3.213   34.456   27.368 
 1189  365.292    3.857    3.213   34.456   27.368 
 1190  365.562    3.856    3.213   34.456   27.368 
 1191  366.102    3.856    3.213   34.456   27.368 
 1192  366.371    3.856    3.213   34.456   27.368 
 1193  366.371    3.856    3.213   34.456   27.368 
 1194  366.641    3.856    3.213   34.455   27.368 
 1195  366.911    3.856    3.213   34.455   27.368 
 1196  367.181    3.857    3.213   34.455   27.368 
 1197  367.721    3.857    3.213   34.455   27.368 
 1198  367.990    3.857    3.214   34.456   27.368 
 1199  368.800    3.858    3.214   34.456   27.368 
 1200  369.070    3.861    3.214   34.456   27.368 
 1201  369.879    3.861    3.214   34.456   27.368 
 1202  370.419    3.861    3.214   34.456   27.368 
 1203  370.689    3.861    3.214   34.456   27.368 
 1204  371.229    3.861    3.214   34.456   27.368 
 1205  371.229    3.861    3.214   34.456   27.368 
 1206  371.768    3.860    3.214   34.456   27.368 
 1207  372.038    3.860    3.214   34.456   27.368 
 1208  372.578    3.860    3.214   34.456   27.368 
 1209  372.578    3.860    3.214   34.456   27.368 
 1210  372.848    3.860    3.214   34.456   27.368 
 1211  373.118    3.860    3.214   34.457   27.369 
 1212  373.387    3.860    3.214   34.457   27.369 
 1213  373.657    3.861    3.214   34.458   27.369 
 1214  373.927    3.861    3.214   34.458   27.369 
 1215  374.197    3.861    3.214   34.458   27.369 
 1216  374.467    3.861    3.214   34.457   27.369 
 1217  374.737    3.861    3.214   34.457   27.369 
 1218  375.006    3.861    3.214   34.458   27.369 
 1219  375.276    3.861    3.214   34.458   27.369 
 1220  375.546    3.861    3.214   34.458   27.369 
 1221  375.816    3.861    3.215   34.458   27.369 
 1222  376.356    3.862    3.215   34.458   27.369 
 1223  376.626    3.861    3.215   34.458   27.369 
 1224  377.435    3.861    3.215   34.458   27.369 
 1225  377.705    3.862    3.215   34.458   27.369 
 1226  378.514    3.863    3.215   34.458   27.369 
 1227  378.514    3.863    3.215   34.458   27.369 
 1228  379.054    3.864    3.215   34.458   27.369 
 1229  379.054    3.866    3.215   34.459   27.370 
 1230  379.594    3.866    3.215   34.459   27.370 
 1231  379.864    3.866    3.215   34.460   27.370 
 1232  380.134    3.866    3.215   34.459   27.370 
 1233  380.673    3.866    3.215   34.460   27.370 
 1234  380.943    3.867    3.215   34.460   27.370 
 1235  381.213    3.868    3.215   34.461   27.370 
 1236  381.753    3.869    3.216   34.461   27.370 
 1237  382.022    3.871    3.216   34.460   27.370 
 1238  382.562    3.871    3.216   34.460   27.370 
 1239  382.832    3.871    3.216   34.460   27.370 
 1240  383.372    3.871    3.216   34.460   27.370 
 1241  383.642    3.871    3.216   34.460   27.370 
 1242  383.642    3.870    3.216   34.459   27.369 
 1243  384.181    3.868    3.215   34.457   27.368 
 1244  384.181    3.868    3.215   34.455   27.367 
 1245  384.451    3.866    3.215   34.455   27.367 
 1246  384.991    3.860    3.214   34.455   27.367 
 1247  385.261    3.854    3.214   34.454   27.367 
 1248  385.800    3.850    3.213   34.453   27.367 
 1249  386.340    3.847    3.213   34.453   27.367 
 1250  386.610    3.846    3.213   34.453   27.367 
 1251  387.150    3.846    3.213   34.451   27.366 
 1252  387.419    3.846    3.213   34.451   27.365 
 1253  387.689    3.843    3.213   34.450   27.365 
 1254  388.229    3.841    3.212   34.450   27.365 
 1255  388.769    3.836    3.212   34.449   27.365 
 1256  388.769    3.835    3.212   34.448   27.364 
 1257  389.039    3.835    3.212   34.448   27.364 
 1258  389.578    3.834    3.212   34.447   27.363 
 1259  389.578    3.831    3.211   34.445   27.362 
 1260  389.848    3.826    3.210   34.443   27.362 
 1261  390.118    3.820    3.210   34.443   27.362 
 1262  390.118    3.816    3.210   34.443   27.362 
 1263  390.388    3.816    3.210   34.443   27.362 
 1264  390.658    3.816    3.210   34.443   27.362 
 1265  390.928    3.816    3.210   34.443   27.362 
 1266  390.928    3.816    3.210   34.443   27.362 
 1267  391.467    3.816    3.210   34.442   27.361 
 1268  391.737    3.815    3.210   34.441   27.361 
 1269  392.007    3.814    3.210   34.441   27.361 
 1270  392.277    3.814    3.210   34.441   27.361 
 1271  392.547    3.813    3.210   34.441   27.361 
 1272  392.547    3.813    3.210   34.441   27.361 
 1273  393.086    3.812    3.209   34.441   27.361 
 1274  393.086    3.811    3.209   34.441   27.361 
 1275  393.626    3.811    3.209   34.441   27.361 
 1276  393.896    3.810    3.209   34.441   27.361 
 1277  394.436    3.810    3.209   34.441   27.361 
 1278  394.975    3.810    3.209   34.441   27.361 
 1279  395.515    3.810    3.209   34.441   27.361 
 1280  396.055    3.810    3.210   34.441   27.361 
 1281  396.325    3.811    3.210   34.441   27.361 
 1282  396.594    3.812    3.210   34.441   27.360 
 1283  397.134    3.812    3.210   34.441   27.360 
 1284  397.404    3.813    3.210   34.440   27.360 
 1285  397.674    3.813    3.210   34.440   27.360 
 1286  397.674    3.813    3.210   34.440   27.360 
 1287  398.214    3.813    3.210   34.440   27.360 
 1288  398.214    3.813    3.210   34.440   27.360 
 1289  398.483    3.813    3.210   34.440   27.360 
 1290  398.483    3.813    3.210   34.440   27.360 
 1291  398.753    3.813    3.210   34.440   27.360 
 1292  399.023    3.813    3.210   34.440   27.360 
 1293  399.293    3.813    3.210   34.440   27.360 
 1294  399.563    3.813    3.210   34.440   27.359 
 1295  399.833    3.813    3.210   34.439   27.359 
 1296  400.102    3.813    3.210   34.439   27.359 
 1297  400.102    3.813    3.210   34.439   27.359 
 1298  400.642    3.813    3.210   34.439   27.359 
 1299  400.912    3.813    3.210   34.439   27.359 
 1300  401.182    3.813    3.210   34.440   27.360 
 1301  401.452    3.813    3.210   34.440   27.360 
 1302  401.452    3.813    3.210   34.440   27.360 
 1303  401.991    3.813    3.210   34.440   27.360 
 1304  402.531    3.813    3.210   34.440   27.360 
 1305  403.071    3.813    3.210   34.440   27.360 
 1306  403.611    3.813    3.210   34.440   27.360 
 1307  403.880    3.813    3.210   34.440   27.360 
 1308  404.420    3.813    3.210   34.439   27.360 
 1309  404.690    3.813    3.210   34.439   27.360 
 1310  405.230    3.814    3.210   34.439   27.359 
 1311  405.500    3.814    3.210   34.441   27.359 
 1312  405.769    3.814    3.210   34.441   27.359 
 1313  406.309    3.814    3.210   34.439   27.359 
 1314  406.309    3.814    3.210   34.439   27.360 
 1315  406.579    3.814    3.210   34.439   27.360 
 1316  407.119    3.814    3.210   34.440   27.359 
 1317  407.119    3.814    3.210   34.440   27.359 
 1318  407.119    3.814    3.210   34.440   27.359 
 1319  407.658    3.814    3.210   34.440   27.359 
 1320  407.658    3.814    3.210   34.440   27.359 
 1321  407.928    3.814    3.210   34.440   27.359 
 1322  408.198    3.814    3.210   34.440   27.359 
 1323  408.468    3.814    3.210   34.440   27.359 
 1324  408.738    3.814    3.210   34.439   27.359 
 1325  408.738    3.814    3.210   34.439   27.359 
 1326  409.277    3.814    3.210   34.439   27.359 
 1327  409.547    3.812    3.210   34.439   27.359 
 1328  409.547    3.812    3.210   34.439   27.359 
 1329  409.817    3.811    3.210   34.439   27.359 
 1330  410.087    3.810    3.210   34.439   27.359 
 1331  410.357    3.809    3.210   34.439   27.359 
 1332  410.897    3.808    3.210   34.439   27.359 
 1333  411.166    3.807    3.210   34.439   27.359 
 1334  411.436    3.807    3.210   34.438   27.359 
 1335  411.706    3.806    3.210   34.438   27.359 
 1336  411.976    3.806    3.210   34.438   27.359 
 1337  412.246    3.805    3.209   34.437   27.359 
 1338  412.786    3.803    3.209   34.437   27.358 
 1339  413.055    3.802    3.209   34.436   27.358 
 1340  413.325    3.799    3.209   34.435   27.357 
 1341  413.595    3.797    3.208   34.433   27.356 
 1342  413.865    3.796    3.208   34.433   27.356 
 1343  413.865    3.794    3.208   34.432   27.356 
 1344  414.135    3.791    3.208   34.432   27.356 
 1345  414.405    3.789    3.207   34.432   27.356 
 1346  414.944    3.787    3.207   34.432   27.356 
 1347  414.944    3.786    3.207   34.432   27.357 
 1348  415.214    3.786    3.207   34.432   27.357 
 1349  415.754    3.786    3.207   34.432   27.357 
 1350  416.024    3.786    3.207   34.432   27.357 
 1351  416.294    3.786    3.207   34.432   27.357 
 1352  416.833    3.786    3.207   34.432   27.356 
 1353  416.833    3.786    3.207   34.432   27.356 
 1354  417.103    3.786    3.207   34.432   27.356 
 1355  417.373    3.786    3.207   34.432   27.356 
 1356  417.913    3.786    3.207   34.432   27.356 
 1357  417.913    3.786    3.208   34.432   27.356 
 1358  418.183    3.787    3.208   34.432   27.356 
 1359  418.453    3.787    3.208   34.432   27.356 
 1360  418.722    3.787    3.208   34.433   27.356 
 1361  418.992    3.786    3.208   34.432   27.356 
 1362  419.262    3.786    3.208   34.432   27.356 
 1363  419.532    3.786    3.208   34.432   27.356 
 1364  420.072    3.787    3.208   34.431   27.356 
 1365  420.342    3.787    3.208   34.431   27.355 
 1366  420.881    3.787    3.208   34.431   27.355 
 1367  421.151    3.787    3.208   34.431   27.355 
 1368  421.691    3.787    3.208   34.431   27.355 
 1369  421.961    3.787    3.208   34.431   27.355 
 1370  422.500    3.787    3.208   34.431   27.355 
 1371  422.770    3.787    3.208   34.431   27.355 
 1372  423.040    3.787    3.208   34.431   27.355 
 1373  423.310    3.789    3.208   34.431   27.355 
 1374  423.580    3.791    3.208   34.431   27.355 
 1375  423.850    3.791    3.208   34.431   27.355 
 1376  424.120    3.791    3.208   34.431   27.355 
 1377  424.120    3.791    3.208   34.431   27.355 
 1378  424.120    3.791    3.208   34.431   27.355 
 1379  424.659    3.792    3.208   34.431   27.355 
 1380  424.929    3.792    3.208   34.431   27.355 
 1381  425.199    3.792    3.208   34.431   27.355 
 1382  425.199    3.792    3.208   34.431   27.355 
 1383  425.469    3.794    3.209   34.433   27.356 
 1384  425.469    3.796    3.209   34.433   27.356 
 1385  426.009    3.797    3.209   34.433   27.356 
 1386  426.009    3.797    3.209   34.433   27.356 
 1387  426.278    3.797    3.209   34.433   27.356 
 1388  426.548    3.797    3.209   34.433   27.356 
 1389  426.818    3.797    3.209   34.433   27.356 
 1390  427.088    3.796    3.209   34.434   27.357 
 1391  427.088    3.796    3.209   34.434   27.357 
 1392  427.358    3.796    3.209   34.434   27.357 
 1393  427.628    3.796    3.209   34.434   27.357 
 1394  427.628    3.800    3.210   34.435   27.357 
 1395  427.898    3.802    3.210   34.436   27.357 
 1396  428.437    3.802    3.210   34.436   27.358 
 1397  428.707    3.803    3.210   34.436   27.358 
 1398  428.977    3.805    3.210   34.436   27.358 
 1399  429.247    3.806    3.210   34.436   27.358 
 1400  429.517    3.806    3.210   34.436   27.358 
 1401  429.787    3.806    3.210   34.437   27.358 
 1402  430.326    3.807    3.211   34.438   27.359 
 1403  430.326    3.810    3.211   34.439   27.359 
 1404  430.326    3.812    3.211   34.439   27.359 
 1405  430.596    3.814    3.211   34.440   27.359 
 1406  430.866    3.816    3.212   34.440   27.359 
 1407  430.866    3.818    3.212   34.441   27.359 
 1408  430.866    3.819    3.212   34.441   27.359 
 1409  431.136    3.820    3.212   34.441   27.359 
 1410  431.136    3.820    3.212   34.440   27.359 
 1411  431.406    3.820    3.212   34.440   27.359 
 1412  431.406    3.820    3.212   34.440   27.359 
 1413  431.406    3.820    3.212   34.440   27.359 
 1414  431.406    3.819    3.212   34.440   27.359 
 1415  431.406    3.818    3.212   34.440   27.359 
 1416  431.406    3.818    3.212   34.440   27.359 
 1417  431.676    3.817    3.212   34.440   27.359 
 1418  431.676    3.817    3.212   34.440   27.359 
 1419  431.676    3.817    3.212   34.440   27.359 
 1420  431.676    3.817    3.212   34.440   27.359 
 1421  431.676    3.817    3.212   34.440   27.359 
 1422  431.676    3.818    3.212   34.440   27.359 
 1423  431.945    3.818    3.212   34.440   27.360 
 1424  431.945    3.818    3.212   34.441   27.360 
 1425  431.945    3.819    3.212   34.441   27.360 
 1426  431.945    3.819    3.212   34.441   27.360 
 1427  431.945    3.819    3.212   34.441   27.360 
 1428  431.945    3.820    3.212   34.441   27.360 
 1429  431.945    3.821    3.212   34.441   27.360 
 1430  431.945    3.821    3.212   34.441   27.360 
 1431  431.945    3.821    3.212   34.442   27.360 
 1432  431.945    3.822    3.212   34.442   27.360 
 1433  431.945    3.822    3.212   34.442   27.360 
 1434  431.945    3.822    3.212   34.442   27.360 
 1435  431.945    3.822    3.212   34.442   27.360 
 1436  431.945    3.822    3.212   34.442   27.360 
 1437  431.676    3.822    3.212   34.442   27.360 
 1438  431.676    3.819    3.212   34.442   27.360 
 1439  431.676    3.819    3.212   34.442   27.360 
 1440  431.676    3.819    3.212   34.441   27.360 
 1441  431.676    3.819    3.212   34.441   27.360 
 1442  431.676    3.819    3.212   34.441   27.360 
 1443  431.676    3.819    3.212   34.441   27.360 
 1444  431.676    3.819    3.212   34.441   27.360 
 1445  431.676    3.819    3.212   34.441   27.360 
 1446  431.676    3.819    3.212   34.441   27.360 
 1447  431.676    3.819    3.212   34.441   27.360 
 1448  431.676    3.819    3.212   34.441   27.360 
 1449  431.676    3.819    3.212   34.441   27.360 
 1450  431.676    3.819    3.212   34.441   27.360 
 1451  431.406    3.819    3.212   34.441   27.360 
 1452  431.406    3.819    3.212   34.441   27.360 
 1453  431.406    3.819    3.212   34.441   27.360 
 1454  431.406    3.819    3.212   34.441   27.360 
 1455  431.406    3.819    3.212   34.441   27.360 
 1456  431.406    3.819    3.212   34.441   27.360 
 1457  431.406    3.819    3.212   34.441   27.360 
 1458  431.406    3.819    3.212   34.441   27.360 
 1459  431.406    3.819    3.212   34.441   27.360 
 1460  431.136    3.819    3.212   34.441   27.360 
 1461  431.136    3.818    3.212   34.439   27.359 
 1462  431.136    3.816    3.211   34.439   27.359 
 1463  431.136    3.816    3.211   34.439   27.359 
 1464  431.136    3.815    3.211   34.439   27.359 
 1465  430.866    3.813    3.211   34.439   27.359 
 1466  430.866    3.810    3.211   34.439   27.359 
 1467  430.866    3.810    3.211   34.439   27.359 
 1468  430.866    3.812    3.211   34.439   27.359 
 1469  430.596    3.812    3.211   34.439   27.359 
 1470  430.596    3.812    3.211   34.439   27.359 
 1471  430.596    3.810    3.211   34.438   27.359 
 1472  430.596    3.810    3.211   34.438   27.359 
 1473  430.596    3.810    3.211   34.438   27.359 
 1474  430.326    3.809    3.210   34.437   27.359 
 1475  430.326    3.806    3.210   34.437   27.359 
 1476  430.326    3.806    3.210   34.437   27.359 
 1477  430.056    3.806    3.210   34.437   27.359 
 1478  430.056    3.806    3.210   34.437   27.359 
 1479  430.056    3.806    3.210   34.437   27.359 
 1480  430.056    3.806    3.210   34.437   27.359 
 1481  429.787    3.806    3.210   34.437   27.359 
 1482  429.517    3.806    3.210   34.438   27.359 
 1483  429.517    3.806    3.210   34.438   27.359 
 1484  429.517    3.806    3.210   34.438   27.359 
 1485  429.517    3.806    3.210   34.438   27.359 
 1486  429.247    3.806    3.210   34.438   27.359 
 1487  429.247    3.809    3.211   34.438   27.359 
 1488  428.977    3.810    3.211   34.439   27.359 
 1489  428.977    3.811    3.211   34.439   27.359 
 1490  428.707    3.812    3.211   34.439   27.359 
 1491  428.707    3.812    3.211   34.439   27.359 
 1492  428.437    3.812    3.211   34.439   27.359 
 1493  428.437    3.813    3.211   34.439   27.359 
 1494  428.437    3.813    3.211   34.440   27.359 
 1495  428.167    3.813    3.211   34.440   27.359 
 1496  428.167    3.812    3.211   34.440   27.359 
 1497  427.898    3.812    3.211   34.440   27.359 
 1498  427.898    3.813    3.211   34.438   27.359 
 1499  427.898    3.812    3.211   34.438   27.359 
 1500  427.898    3.811    3.211   34.438   27.359 
 1501  427.898    3.811    3.211   34.438   27.359 
 1502  427.628    3.811    3.211   34.438   27.359 
 1503  427.358    3.812    3.211   34.438   27.359 
 1504  427.358    3.813    3.211   34.438   27.359 
 1505  427.358    3.813    3.211   34.438   27.359 
 1506  427.358    3.813    3.211   34.438   27.359 
 1507  427.088    3.813    3.211   34.438   27.359 
 1508  427.088    3.813    3.211   34.438   27.359 
 1509  427.088    3.812    3.211   34.438   27.359 
 1510  427.088    3.811    3.210   34.439   27.359 
 1511  427.088    3.805    3.210   34.439   27.359 
 1512  426.818    3.805    3.210   34.439   27.359 
 1513  426.818    3.805    3.210   34.435   27.357 
 1514  426.818    3.805    3.210   34.435   27.357 
 1515  426.818    3.805    3.210   34.435   27.357 
 1516  426.818    3.805    3.210   34.435   27.357 
 1517  426.548    3.805    3.210   34.435   27.357 
 1518  426.548    3.805    3.210   34.435   27.357 
 1519  426.278    3.804    3.210   34.435   27.357 
 1520  426.278    3.803    3.210   34.436   27.357 
 1521  426.278    3.803    3.210   34.436   27.357 
 1522  426.009    3.803    3.210   34.436   27.357 
 1523  426.009    3.801    3.210   34.436   27.357 
 1524  426.009    3.800    3.210   34.434   27.357 
 1525  426.009    3.800    3.209   34.434   27.356 
 1526  425.739    3.799    3.209   34.433   27.356 
 1527  425.739    3.799    3.209   34.433   27.356 
 1528  425.739    3.799    3.209   34.433   27.356 
 1529  425.469    3.800    3.209   34.433   27.356 
 1530  425.469    3.800    3.209   34.433   27.356 
 1531  425.469    3.798    3.209   34.435   27.358 
 1532  425.199    3.800    3.209   34.435   27.358 
 1533  425.199    3.800    3.209   34.435   27.358 
 1534  425.199    3.800    3.209   34.435   27.358 
 1535  425.199    3.800    3.209   34.435   27.358 
 1536  424.929    3.799    3.209   34.435   27.357 
 1537  424.929    3.798    3.209   34.434   27.357 
 1538  424.929    3.798    3.209   34.434   27.357 
 1539  424.929    3.798    3.209   34.434   27.357 
 1540  424.929    3.797    3.209   34.434   27.357 
 1541  424.929    3.797    3.209   34.434   27.357 
 1542  424.659    3.798    3.209   34.434   27.357 
 1543  424.659    3.798    3.209   34.435   27.357 
 1544  424.659    3.799    3.209   34.435   27.357 
 1545  424.659    3.800    3.209   34.435   27.357 
 1546  424.659    3.800    3.209   34.435   27.357 
 1547  424.659    3.801    3.209   34.435   27.357 
 1548  424.389    3.801    3.209   34.435   27.357 
 1549  424.389    3.801    3.209   34.435   27.357 
 1550  424.389    3.801    3.209   34.435   27.357 
 1551  424.389    3.801    3.209   34.435   27.357 
 1552  424.120    3.800    3.209   34.435   27.357 
 1553  424.120    3.799    3.209   34.435   27.357 
 1554  424.120    3.799    3.209   34.435   27.357 
 1555  424.120    3.799    3.209   34.435   27.357 
 1556  424.120    3.799    3.209   34.435   27.357 
 1557  423.850    3.799    3.209   34.434   27.357 
 1558  423.850    3.798    3.209   34.434   27.357 
 1559  423.850    3.798    3.209   34.434   27.357 
 1560  423.850    3.798    3.209   34.434   27.357 
 1561  423.580    3.798    3.209   34.434   27.357 
 1562  423.580    3.798    3.209   34.434   27.357 
 1563  423.580    3.798    3.209   34.434   27.357 
 1564  423.580    3.799    3.209   34.434   27.356 
 1565  423.580    3.799    3.209   34.434   27.356 
 1566  423.580    3.799    3.209   34.434   27.356 
 1567  423.310    3.798    3.209   34.434   27.356 
 1568  423.310    3.797    3.209   34.434   27.357 
 1569  423.310    3.797    3.209   34.434   27.357 
 1570  423.310    3.797    3.209   34.434   27.357 
 1571  423.040    3.795    3.209   34.434   27.357 
 1572  423.040    3.795    3.209   34.432   27.356 
 1573  422.770    3.795    3.209   34.432   27.356 
 1574  422.770    3.795    3.209   34.432   27.356 
 1575  422.770    3.795    3.209   34.432   27.356 
 1576  422.770    3.794    3.209   34.432   27.356 
 1577  422.770    3.793    3.208   34.432   27.356 
 1578  422.500    3.793    3.208   34.432   27.356 
 1579  422.500    3.792    3.208   34.433   27.356 
 1580  422.500    3.792    3.208   34.433   27.356 
 1581  422.500    3.792    3.208   34.433   27.356 
 1582  422.231    3.791    3.208   34.433   27.356 
 1583  422.231    3.791    3.208   34.433   27.356 
 1584  421.961    3.791    3.208   34.433   27.356 
 1585  421.691    3.791    3.208   34.433   27.356 
 1586  421.421    3.791    3.208   34.431   27.355 
 1587  421.421    3.791    3.208   34.431   27.355 
 1588  421.421    3.791    3.208   34.431   27.355 
 1589  421.421    3.789    3.208   34.431   27.355 
 1590  421.151    3.789    3.208   34.432   27.356 
 1591  421.151    3.789    3.208   34.432   27.356 
 1592  420.881    3.789    3.208   34.432   27.356 
 1593  420.881    3.789    3.208   34.432   27.356 
 1594  420.881    3.789    3.208   34.432   27.356 
 1595  420.881    3.789    3.208   34.432   27.356 
 1596  420.611    3.789    3.208   34.432   27.356 
 1597  420.611    3.788    3.208   34.431   27.355 
 1598  420.342    3.788    3.208   34.431   27.355 
 1599  420.342    3.788    3.208   34.431   27.355 
 1600  420.342    3.788    3.208   34.431   27.355 
 1601  420.072    3.788    3.208   34.431   27.355 
 1602  420.072    3.788    3.208   34.431   27.355 
 1603  420.072    3.788    3.208   34.431   27.355 
 1604  420.072    3.788    3.208   34.431   27.355 
 1605  420.072    3.788    3.208   34.431   27.355 
 1606  419.802    3.787    3.208   34.431   27.355 
 1607  419.802    3.787    3.208   34.431   27.355 
 1608  419.802    3.787    3.208   34.432   27.356 
 1609  419.532    3.786    3.208   34.432   27.356 
 1610  419.532    3.787    3.208   34.432   27.356 
 1611  419.532    3.786    3.208   34.432   27.356 
 1612  419.532    3.786    3.208   34.432   27.356 
 1613  419.262    3.786    3.208   34.432   27.356 
 1614  419.262    3.786    3.208   34.432   27.356 
 1615  419.262    3.787    3.208   34.431   27.355 
 1616  419.262    3.787    3.208   34.431   27.355 
 1617  419.262    3.787    3.208   34.431   27.355 
 1618  418.992    3.787    3.208   34.431   27.355 
 1619  418.992    3.787    3.208   34.431   27.355 
 1620  418.992    3.787    3.208   34.431   27.355 
 1621  418.992    3.787    3.208   34.431   27.355 
 1622  418.992    3.787    3.208   34.431   27.355 
 1623  418.992    3.786    3.208   34.431   27.355 
 1624  418.992    3.786    3.208   34.431   27.355 
 1625  418.722    3.786    3.208   34.431   27.355 
 1626  418.722    3.786    3.207   34.432   27.355 
 1627  418.722    3.786    3.207   34.430   27.355 
 1628  418.722    3.786    3.207   34.430   27.355 
 1629  418.722    3.786    3.208   34.430   27.355 
 1630  418.722    3.786    3.207   34.430   27.355 
 1631  418.722    3.786    3.207   34.430   27.355 
 1632  418.722    3.786    3.207   34.430   27.355 
 1633  418.453    3.786    3.207   34.430   27.355 
 1634  418.453    3.786    3.207   34.430   27.355 
 1635  418.453    3.786    3.207   34.431   27.356 
 1636  418.453    3.786    3.207   34.431   27.356 
 1637  418.453    3.786    3.207   34.431   27.356 
 1638  418.183    3.786    3.207   34.431   27.356 
 1639  418.183    3.786    3.207   34.431   27.356 
 1640  418.183    3.786    3.207   34.431   27.356 
 1641  418.183    3.786    3.207   34.431   27.356 
 1642  417.913    3.786    3.207   34.431   27.356 
 1643  417.913    3.786    3.207   34.431   27.356 
 1644  417.643    3.786    3.207   34.431   27.355 
 1645  417.643    3.786    3.207   34.430   27.354 
 1646  417.643    3.786    3.207   34.430   27.354 
 1647  417.373    3.785    3.207   34.430   27.354 
 1648  417.373    3.785    3.207   34.429   27.354 
 1649  417.373    3.785    3.207   34.429   27.354 
 1650  417.103    3.785    3.207   34.429   27.354 
 1651  417.103    3.785    3.207   34.429   27.354 
 1652  417.103    3.785    3.207   34.429   27.354 
 1653  416.833    3.785    3.207   34.429   27.354 
 1654  416.833    3.785    3.207   34.429   27.354 
 1655  416.564    3.785    3.207   34.429   27.354 
 1656  416.564    3.785    3.207   34.429   27.354 
 1657  416.564    3.785    3.207   34.429   27.354 
 1658  416.564    3.785    3.207   34.429   27.354 
 1659  416.294    3.785    3.207   34.429   27.354 
 1660  416.294    3.785    3.207   34.429   27.354 
 1661  416.024    3.785    3.207   34.430   27.354 
 1662  416.024    3.785    3.207   34.430   27.354 
 1663  416.024    3.785    3.207   34.430   27.354 
 1664  415.754    3.784    3.207   34.430   27.354 
 1665  415.754    3.784    3.207   34.429   27.354 
 1666  415.754    3.784    3.207   34.429   27.354 
 1667  415.754    3.784    3.207   34.429   27.354 
 1668  415.754    3.784    3.207   34.429   27.354 
 1669  415.484    3.783    3.207   34.429   27.354 
 1670  415.214    3.783    3.207   34.429   27.354 
 1671  415.214    3.783    3.207   34.429   27.354 
 1672  415.214    3.784    3.207   34.430   27.354 
 1673  415.214    3.784    3.207   34.430   27.354 
 1674  415.214    3.784    3.207   34.429   27.354 
 1675  414.944    3.783    3.207   34.429   27.354 
 1676  414.944    3.783    3.207   34.429   27.354 
 1677  414.944    3.783    3.207   34.429   27.354 
 1678  414.675    3.783    3.207   34.429   27.354 
 1679  414.675    3.783    3.207   34.429   27.354 
 1680  414.675    3.783    3.207   34.429   27.354 
 1681  414.675    3.783    3.207   34.429   27.354 
 1682  414.675    3.783    3.207   34.429   27.354 
 1683  414.675    3.783    3.207   34.429   27.354 
 1684  414.405    3.783    3.207   34.429   27.354 
 1685  414.405    3.783    3.207   34.429   27.354 
 1686  414.405    3.783    3.207   34.429   27.354 
 1687  414.135    3.783    3.207   34.429   27.354 
 1688  414.135    3.783    3.207   34.429   27.354 
 1689  414.135    3.783    3.207   34.429   27.354 
 1690  414.135    3.783    3.207   34.429   27.354 
 1691  414.135    3.782    3.207   34.429   27.354 
 1692  414.135    3.782    3.207   34.429   27.354 
 1693  413.865    3.782    3.207   34.429   27.354 
 1694  413.865    3.781    3.207   34.429   27.354 
 1695  413.865    3.781    3.207   34.429   27.354 
 1696  413.865    3.781    3.207   34.429   27.354 
 1697  413.865    3.781    3.207   34.429   27.354 
 1698  413.865    3.781    3.207   34.429   27.354 
 1699  413.865    3.781    3.207   34.429   27.354 
 1700  413.595    3.781    3.207   34.429   27.354 
 1701  413.595    3.781    3.207   34.429   27.354 
 1702  413.595    3.781    3.207   34.429   27.354 
 1703  413.325    3.782    3.207   34.428   27.354 
 1704  413.325    3.782    3.207   34.428   27.354 
 1705  413.325    3.782    3.207   34.428   27.354 
 1706  413.325    3.782    3.207   34.428   27.354 
 1707  413.325    3.782    3.207   34.428   27.354 
 1708  413.325    3.782    3.207   34.428   27.354 
 1709  413.055    3.782    3.207   34.428   27.354 
 1710  413.055    3.782    3.207   34.428   27.354 
 1711  413.055    3.782    3.207   34.428   27.354 
 1712  413.055    3.782    3.207   34.428   27.354 
 1713  413.055    3.782    3.207   34.428   27.354 
 1714  413.055    3.782    3.207   34.428   27.354 
 1715  413.055    3.782    3.207   34.428   27.354 
 1716  413.055    3.782    3.207   34.428   27.354 
 1717  412.786    3.782    3.207   34.429   27.354 
 1718  412.786    3.782    3.207   34.429   27.354 
 1719  412.786    3.782    3.207   34.429   27.354 
 1720  412.786    3.782    3.207   34.429   27.354 
 1721  412.516    3.781    3.207   34.429   27.354 
 1722  412.516    3.781    3.206   34.429   27.354 
 1723  412.516    3.780    3.206   34.429   27.354 
 1724  412.516    3.780    3.206   34.429   27.354 
 1725  412.516    3.780    3.206   34.429   27.354 
 1726  412.246    3.781    3.206   34.429   27.354 
 1727  412.246    3.780    3.206   34.428   27.354 
 1728  412.246    3.781    3.206   34.428   27.354 
 1729  411.976    3.781    3.206   34.428   27.354 
 1730  411.976    3.781    3.206   34.428   27.354 
 1731  411.976    3.781    3.206   34.428   27.354 
 1732  411.706    3.780    3.206   34.429   27.355 
 1733  411.706    3.780    3.206   34.429   27.355 
 1734  411.706    3.780    3.206   34.429   27.355 
 1735  411.436    3.780    3.206   34.429   27.355 
 1736  411.166    3.780    3.206   34.429   27.355 
 1737  411.166    3.780    3.206   34.429   27.355 
 1738  410.897    3.780    3.206   34.429   27.355 
 1739  410.897    3.780    3.206   34.429   27.355 
 1740  410.897    3.780    3.206   34.429   27.355 
 1741  410.897    3.780    3.206   34.428   27.354 
 1742  410.897    3.780    3.206   34.428   27.354 
 1743  410.627    3.780    3.206   34.428   27.354 
 1744  410.627    3.780    3.206   34.428   27.354 
 1745  410.627    3.780    3.206   34.428   27.354 
 1746  410.357    3.780    3.206   34.428   27.354 
 1747  410.357    3.780    3.206   34.428   27.354 
 1748  410.357    3.780    3.206   34.428   27.354 
 1749  410.357    3.779    3.206   34.429   27.355 
 1750  410.357    3.779    3.206   34.429   27.355 
 1751  410.357    3.779    3.206   34.429   27.355 
 1752  410.087    3.779    3.206   34.429   27.355 
 1753  410.087    3.779    3.206   34.429   27.355 
 1754  410.087    3.779    3.206   34.429   27.355 
 1755  410.087    3.779    3.206   34.429   27.355 
 1756  409.817    3.779    3.206   34.429   27.355 
 1757  409.817    3.779    3.206   34.429   27.355 
 1758  409.817    3.779    3.206   34.429   27.355 
 1759  409.817    3.779    3.206   34.429   27.355 
 1760  409.817    3.779    3.206   34.429   27.355 
 1761  409.817    3.779    3.206   34.429   27.355 
 1762  409.817    3.779    3.206   34.429   27.355 
 1763  409.817    3.779    3.206   34.429   27.355 
 1764  409.817    3.779    3.206   34.427   27.353 
 1765  409.547    3.779    3.206   34.427   27.353 
 1766  409.547    3.779    3.206   34.427   27.353 
 1767  409.547    3.779    3.206   34.427   27.353 
 1768  409.547    3.779    3.206   34.427   27.353 
 1769  409.547    3.779    3.206   34.427   27.353 
 1770  409.547    3.779    3.206   34.427   27.353 
 1771  409.547    3.779    3.206   34.427   27.353 
 1772  409.547    3.779    3.206   34.427   27.353 
 1773  409.547    3.779    3.206   34.427   27.353 
 1774  409.547    3.779    3.206   34.427   27.353 
 1775  409.277    3.779    3.206   34.428   27.354 
 1776  409.277    3.779    3.206   34.428   27.354 
 1777  409.277    3.778    3.206   34.428   27.354 
 1778  409.277    3.778    3.206   34.428   27.354 
 1779  409.277    3.778    3.206   34.427   27.353 
 1780  409.277    3.778    3.206   34.427   27.353 
 1781  409.008    3.778    3.206   34.427   27.353 
 1782  409.008    3.778    3.206   34.427   27.353 
 1783  409.008    3.778    3.206   34.427   27.353 
 1784  409.008    3.778    3.206   34.427   27.353 
 1785  409.008    3.778    3.206   34.429   27.354 
 1786  409.008    3.778    3.206   34.429   27.354 
 1787  409.008    3.778    3.206   34.429   27.354 
 1788  408.738    3.778    3.206   34.429   27.354 
 1789  408.738    3.778    3.206   34.429   27.354 
 1790  408.738    3.778    3.206   34.429   27.354 
 1791  408.738    3.778    3.206   34.428   27.354 
 1792  408.738    3.778    3.206   34.428   27.354 
 1793  408.468    3.778    3.206   34.428   27.354 
 1794  408.468    3.777    3.206   34.428   27.354 
 1795  408.468    3.777    3.206   34.428   27.354 
 1796  408.468    3.777    3.206   34.428   27.354 
 1797  408.468    3.777    3.206   34.428   27.354 
 1798  408.468    3.777    3.206   34.428   27.354 
 1799  408.468    3.777    3.206   34.428   27.354 
 1800  408.468    3.777    3.206   34.428   27.354 
 1801  408.468    3.777    3.206   34.428   27.354 
 1802  408.468    3.777    3.206   34.428   27.354 
 1803  408.468    3.777    3.206   34.428   27.354 
 1804  408.198    3.777    3.206   34.428   27.354 
 1805  408.198    3.777    3.206   34.428   27.354 
 1806  408.198    3.777    3.206   34.428   27.354 
 1807  408.198    3.777    3.206   34.426   27.353 
 1808  407.928    3.777    3.206   34.426   27.353 
 1809  407.928    3.777    3.206   34.426   27.353 
 1810  407.928    3.777    3.206   34.426   27.353 
 1811  407.928    3.777    3.206   34.426   27.353 
 1812  407.928    3.777    3.206   34.426   27.353 
 1813  407.928    3.776    3.206   34.426   27.353 
 1814  407.928    3.777    3.206   34.426   27.353 
 1815  407.928    3.777    3.206   34.427   27.354 
 1816  407.928    3.776    3.206   34.427   27.354 
 1817  407.928    3.776    3.206   34.427   27.354 
 1818  407.928    3.776    3.206   34.427   27.354 
 1819  407.928    3.776    3.206   34.427   27.354 
 1820  407.928    3.776    3.206   34.427   27.354 
 1821  407.928    3.776    3.206   34.427   27.354 
 1822  407.928    3.776    3.206   34.427   27.354 
 1823  407.928    3.776    3.206   34.427   27.354 
 1824  407.928    3.776    3.206   34.427   27.354 
 1825  407.928    3.776    3.206   34.427   27.354 
 1826  407.928    3.776    3.206   34.427   27.354 
 1827  407.928    3.776    3.206   34.427   27.354 
 1828  407.928    3.776    3.206   34.427   27.354 
 1829  407.928    3.776    3.206   34.427   27.354 
 1830  407.928    3.776    3.206   34.427   27.354 
 1831  407.928    3.776    3.206   34.427   27.354 
 1832  407.658    3.776    3.206   34.427   27.353 
 1833  407.658    3.776    3.206   34.427   27.353 
 1834  407.658    3.776    3.206   34.427   27.353 
 1835  407.658    3.775    3.206   34.427   27.353 
 1836  407.658    3.775    3.206   34.427   27.353 
 1837  407.658    3.775    3.206   34.427   27.353 
 1838  407.658    3.775    3.206   34.427   27.353 
 1839  407.658    3.775    3.206   34.427   27.353 
 1840  407.658    3.775    3.206   34.427   27.353 
 1841  407.658    3.775    3.206   34.427   27.353 
 1842  407.658    3.775    3.206   34.427   27.353 
 1843  407.658    3.775    3.206   34.427   27.353 
 1844  407.658    3.775    3.206   34.427   27.353 
 1845  407.658    3.775    3.206   34.427   27.353 
 1846  407.389    3.775    3.206   34.427   27.353 
 1847  407.389    3.775    3.206   34.427   27.353 
 1848  407.389    3.775    3.206   34.427   27.353 
 1849  407.389    3.775    3.206   34.427   27.353 
 1850  407.389    3.775    3.206   34.427   27.353 
 1851  407.119    3.775    3.206   34.427   27.353 
 1852  407.119    3.775    3.206   34.427   27.353 
 1853  407.119    3.775    3.206   34.427   27.353 
 1854  407.119    3.775    3.206   34.427   27.353 
 1855  406.849    3.775    3.206   34.427   27.353 
 1856  406.849    3.775    3.206   34.427   27.353 
 1857  406.849    3.775    3.206   34.425   27.352 
 1858  406.849    3.775    3.206   34.425   27.352 
 1859  406.849    3.775    3.206   34.425   27.352 
 1860  406.849    3.775    3.206   34.425   27.352 
 1861  406.579    3.775    3.206   34.425   27.352 
 1862  406.579    3.775    3.206   34.425   27.352 
 1863  406.579    3.775    3.206   34.425   27.352 
 1864  406.579    3.774    3.206   34.426   27.353 
 1865  406.579    3.774    3.206   34.426   27.353 
 1866  406.579    3.774    3.206   34.426   27.353 
 1867  406.309    3.774    3.206   34.426   27.353 
 1868  406.309    3.774    3.206   34.426   27.353 
 1869  406.309    3.774    3.206   34.426   27.353 
 1870  406.309    3.774    3.206   34.426   27.353 
 1871  406.309    3.774    3.206   34.426   27.353 
 1872  406.309    3.774    3.205   34.426   27.352 
 1873  406.309    3.774    3.205   34.426   27.352 
 1874  406.039    3.773    3.205   34.426   27.352 
 1875  406.039    3.773    3.205   34.426   27.352 
 1876  406.039    3.773    3.205   34.426   27.352 
 1877  405.769    3.773    3.205   34.426   27.353 
 1878  405.769    3.773    3.205   34.426   27.353 
 1879  405.769    3.773    3.205   34.426   27.353 
 1880  405.769    3.773    3.205   34.426   27.353 
 1881  405.769    3.773    3.205   34.426   27.353 
 1882  405.500    3.773    3.205   34.426   27.353 
 1883  405.500    3.773    3.205   34.426   27.353 
 1884  405.500    3.773    3.205   34.426   27.353 
 1885  405.230    3.773    3.205   34.426   27.353 
 1886  405.230    3.773    3.205   34.426   27.353 
 1887  405.230    3.773    3.205   34.426   27.353 
 1888  405.230    3.773    3.205   34.426   27.353 
 1889  404.960    3.773    3.205   34.426   27.353 
 1890  404.960    3.773    3.205   34.426   27.353 
 1891  404.960    3.773    3.205   34.426   27.353 
 1892  404.960    3.773    3.205   34.424   27.352 
 1893  404.690    3.773    3.205   34.424   27.352 
 1894  404.690    3.773    3.205   34.424   27.352 
 1895  404.690    3.773    3.205   34.424   27.352 
 1896  404.420    3.773    3.205   34.425   27.352 
 1897  404.420    3.773    3.205   34.425   27.352 
 1898  404.420    3.773    3.205   34.425   27.352 
 1899  404.420    3.773    3.205   34.425   27.352 
 1900  404.420    3.773    3.205   34.425   27.352 
 1901  404.150    3.773    3.205   34.425   27.352 
 1902  403.880    3.773    3.205   34.425   27.352 
 1903  403.611    3.773    3.205   34.425   27.352 
 1904  403.611    3.773    3.205   34.425   27.352 
 1905  403.341    3.773    3.205   34.425   27.352 
 1906  403.341    3.773    3.205   34.425   27.352 
 1907  403.341    3.773    3.205   34.425   27.352 
 1908  402.801    3.773    3.205   34.425   27.352 
 1909  402.801    3.773    3.205   34.425   27.352 
 1910  402.801    3.773    3.205   34.425   27.352 
 1911  402.531    3.773    3.205   34.426   27.353 
 1912  402.261    3.773    3.205   34.426   27.353 
 1913  402.261    3.773    3.205   34.426   27.353 
 1914  401.991    3.773    3.205   34.426   27.353 
 1915  401.991    3.773    3.205   34.426   27.353 
 1916  401.991    3.773    3.205   34.426   27.353 
 1917  401.722    3.773    3.205   34.426   27.353 
 1918  401.452    3.773    3.205   34.426   27.353 
 1919  401.452    3.773    3.205   34.426   27.353 
 1920  401.452    3.773    3.205   34.424   27.352 
 1921  401.182    3.773    3.205   34.424   27.352 
 1922  401.182    3.773    3.205   34.424   27.352 
 1923  400.912    3.773    3.205   34.424   27.352 
 1924  400.912    3.773    3.205   34.424   27.352 
 1925  400.912    3.773    3.205   34.424   27.352 
 1926  400.642    3.773    3.205   34.425   27.352 
 1927  400.642    3.773    3.205   34.425   27.352 
 1928  400.372    3.773    3.205   34.425   27.352 
 1929  400.102    3.772    3.205   34.426   27.353 
 1930  400.102    3.772    3.205   34.426   27.353 
 1931  400.102    3.772    3.205   34.426   27.353 
 1932  399.833    3.772    3.205   34.426   27.353 
 1933  399.833    3.772    3.205   34.426   27.353 
 1934  399.563    3.772    3.205   34.426   27.353 
 1935  399.563    3.772    3.205   34.426   27.353 
 1936  399.563    3.772    3.205   34.426   27.353 
 1937  399.293    3.772    3.205   34.426   27.353 
 1938  399.023    3.772    3.205   34.426   27.353 
 1939  399.023    3.772    3.205   34.426   27.353 
 1940  399.023    3.772    3.205   34.426   27.353 
 1941  399.023    3.772    3.205   34.427   27.353 
 1942  398.753    3.772    3.205   34.427   27.353 
 1943  398.753    3.772    3.205   34.427   27.353 
 1944  398.753    3.772    3.205   34.427   27.353 
 1945  398.753    3.772    3.205   34.427   27.353 
 1946  398.483    3.772    3.205   34.427   27.353 
 1947  398.483    3.772    3.205   34.425   27.352 
 1948  398.483    3.772    3.205   34.425   27.352 
 1949  398.214    3.772    3.205   34.425   27.352 
 1950  398.214    3.772    3.205   34.425   27.352 
 1951  398.214    3.772    3.205   34.425   27.352 
 1952  398.214    3.772    3.205   34.425   27.352 
 1953  397.944    3.772    3.205   34.425   27.352 
 1954  397.944    3.772    3.205   34.425   27.352 
 1955  397.944    3.772    3.205   34.425   27.352 
 1956  397.944    3.772    3.205   34.425   27.352 
 1957  397.674    3.772    3.205   34.425   27.352 
 1958  397.674    3.772    3.205   34.425   27.352 
 1959  397.404    3.772    3.205   34.425   27.352 
 1960  397.404    3.771    3.205   34.425   27.352 
 1961  397.404    3.772    3.205   34.425   27.352 
 1962  397.134    3.771    3.205   34.425   27.352 
 1963  397.134    3.771    3.205   34.425   27.352 
 1964  396.864    3.771    3.205   34.425   27.352 
 1965  396.594    3.771    3.205   34.425   27.352 
 1966  396.325    3.771    3.205   34.425   27.352 
 1967  396.325    3.771    3.205   34.425   27.352 
 1968  396.325    3.770    3.205   34.424   27.352 
 1969  396.055    3.770    3.205   34.424   27.352 
 1970  396.055    3.770    3.205   34.424   27.352 
 1971  395.515    3.770    3.205   34.424   27.352 
 1972  395.515    3.770    3.205   34.424   27.352 
 1973  395.515    3.770    3.205   34.424   27.352 
 1974  395.245    3.770    3.205   34.424   27.352 
 1975  394.975    3.770    3.205   34.424   27.352 
 1976  394.705    3.771    3.205   34.424   27.352 
 1977  394.705    3.770    3.205   34.424   27.352 
 1978  394.705    3.771    3.205   34.424   27.352 
 1979  394.436    3.771    3.205   34.424   27.352 
 1980  394.436    3.771    3.205   34.425   27.352 
 1981  394.166    3.770    3.205   34.425   27.352 
 1982  394.166    3.770    3.205   34.425   27.352 
 1983  394.166    3.770    3.205   34.425   27.352 
 1984  394.166    3.770    3.205   34.425   27.352 
 1985  393.896    3.770    3.205   34.425   27.353 
 1986  393.626    3.770    3.205   34.425   27.353 
 1987  393.626    3.770    3.205   34.425   27.353 
 1988  393.626    3.770    3.205   34.425   27.353 
 1989  393.626    3.770    3.205   34.425   27.353 
 1990  393.626    3.770    3.205   34.425   27.353 
 1991  393.626    3.770    3.205   34.425   27.353 
 1992  393.356    3.770    3.205   34.425   27.353 
 1993  393.356    3.770    3.205   34.425   27.353 
 1994  393.356    3.770    3.204   34.424   27.351 
 1995  393.356    3.770    3.204   34.424   27.351 
 1996  393.356    3.770    3.204   34.424   27.351 
 1997  393.086    3.770    3.204   34.424   27.351 
 1998  393.086    3.770    3.204   34.424   27.351 
 1999  393.086    3.770    3.204   34.424   27.351 
 2000  393.086    3.770    3.204   34.424   27.351 
 2001  392.816    3.770    3.204   34.424   27.351 
 2002  392.816    3.770    3.204   34.424   27.351 
 2003  392.816    3.770    3.205   34.424   27.351 
 2004  392.816    3.770    3.204   34.424   27.351 
 2005  392.816    3.770    3.204   34.424   27.351 
 2006  392.816    3.770    3.204   34.424   27.352 
 2007  392.547    3.770    3.204   34.424   27.352 
 2008  392.547    3.770    3.204   34.424   27.352 
 2009  392.547    3.770    3.204   34.424   27.352 
 2010  392.547    3.770    3.204   34.424   27.352 
 2011  392.547    3.770    3.204   34.424   27.352 
 2012  392.547    3.771    3.204   34.424   27.352 
 2013  392.277    3.771    3.204   34.424   27.352 
 2014  392.277    3.770    3.204   34.424   27.352 
 2015  392.277    3.770    3.204   34.424   27.352 
 2016  392.277    3.770    3.204   34.424   27.352 
 2017  392.277    3.770    3.204   34.424   27.352 
 2018  392.277    3.770    3.204   34.424   27.352 
 2019  392.277    3.770    3.204   34.424   27.352 
 2020  392.277    3.770    3.204   34.424   27.352 
 2021  392.277    3.770    3.204   34.424   27.352 
 2022  392.277    3.770    3.204   34.424   27.352 
 2023  392.277    3.770    3.204   34.424   27.352 
 2024  392.277    3.770    3.204   34.424   27.352 
 2025  392.277    3.770    3.204   34.424   27.352 
 2026  392.277    3.769    3.204   34.425   27.353 
 2027  392.277    3.769    3.204   34.425   27.353 
 2028  392.277    3.769    3.204   34.425   27.353 
 2029  392.277    3.769    3.204   34.425   27.353 
 2030  392.007    3.769    3.204   34.425   27.353 
 2031  392.277    3.769    3.204   34.425   27.353 
 2032  392.277    3.769    3.204   34.425   27.353 
 2033  392.277    3.769    3.204   34.425   27.353 
 2034  392.277    3.769    3.204   34.425   27.353 
 2035  392.007    3.769    3.204   34.425   27.353 
 2036  392.007    3.769    3.204   34.425   27.353 
 2037  392.007    3.769    3.204   34.423   27.351 
 2038  392.007    3.769    3.204   34.423   27.351 
 2039  392.007    3.769    3.204   34.423   27.351 
 2040  392.007    3.769    3.204   34.423   27.351 
 2041  392.007    3.768    3.204   34.425   27.353 
 2042  392.007    3.768    3.204   34.425   27.353 
 2043  392.007    3.768    3.204   34.425   27.353 
 2044  392.007    3.769    3.204   34.425   27.353 
 2045  392.007    3.769    3.204   34.425   27.353 
 2046  392.007    3.769    3.204   34.425   27.353 
 2047  392.007    3.769    3.204   34.425   27.353 
 2048  392.007    3.769    3.204   34.425   27.353 
 2049  391.737    3.769    3.204   34.425   27.353 
 2050  391.737    3.769    3.204   34.425   27.353 
 2051  391.737    3.769    3.204   34.425   27.353 
 2052  391.737    3.769    3.204   34.425   27.353 
 2053  391.737    3.769    3.204   34.424   27.351 
 2054  391.737    3.769    3.204   34.424   27.351 
 2055  391.467    3.769    3.204   34.424   27.351 
 2056  391.197    3.769    3.204   34.424   27.351 
 2057  391.197    3.769    3.204   34.424   27.351 
 2058  391.197    3.769    3.204   34.424   27.351 
 2059  391.197    3.769    3.204   34.424   27.351 
 2060  391.197    3.769    3.204   34.424   27.351 
 2061  391.197    3.768    3.204   34.424   27.352 
 2062  391.197    3.768    3.204   34.425   27.352 
 2063  391.197    3.768    3.204   34.425   27.352 
 2064  391.197    3.768    3.204   34.425   27.352 
 2065  391.197    3.768    3.204   34.425   27.352 
 2066  390.928    3.768    3.204   34.425   27.352 
 2067  390.928    3.768    3.204   34.425   27.352 
 2068  390.928    3.768    3.204   34.425   27.352 
 2069  390.928    3.768    3.204   34.425   27.352 
 2070  390.928    3.768    3.204   34.425   27.352 
 2071  390.658    3.767    3.204   34.425   27.353 
 2072  390.658    3.768    3.204   34.425   27.353 
 2073  390.658    3.767    3.204   34.426   27.354 
 2074  390.658    3.767    3.204   34.426   27.354 
 2075  390.658    3.767    3.204   34.426   27.354 
 2076  390.658    3.767    3.204   34.426   27.354 
 2077  390.658    3.767    3.204   34.425   27.353 
 2078  390.658    3.768    3.204   34.424   27.352 
 2079  390.658    3.768    3.204   34.423   27.351 
 2080  390.658    3.768    3.204   34.423   27.351 
 2081  390.658    3.768    3.204   34.423   27.351 
 2082  390.658    3.768    3.204   34.423   27.351 
 2083  390.658    3.767    3.204   34.424   27.352 
 2084  390.658    3.767    3.204   34.424   27.352 
 2085  390.388    3.767    3.204   34.424   27.352 
 2086  390.388    3.767    3.204   34.424   27.352 
 2087  390.388    3.767    3.204   34.424   27.352 
 2088  390.388    3.767    3.204   34.424   27.352 
 2089  390.388    3.767    3.204   34.424   27.352 
 2090  390.388    3.767    3.204   34.424   27.352 
 2091  390.388    3.767    3.204   34.424   27.352 
 2092  390.118    3.767    3.204   34.424   27.352 
 2093  390.118    3.767    3.204   34.424   27.352 
 2094  390.118    3.766    3.204   34.425   27.353 
 2095  389.848    3.766    3.204   34.426   27.353 
 2096  389.848    3.766    3.204   34.426   27.353 
 2097  389.848    3.766    3.204   34.426   27.353 
 2098  389.848    3.766    3.204   34.426   27.353 
 2099  389.848    3.766    3.204   34.426   27.353 
 2100  389.578    3.766    3.204   34.426   27.353 
 2101  389.578    3.766    3.204   34.426   27.353 
 2102  389.578    3.766    3.204   34.426   27.353 
 2103  389.578    3.766    3.204   34.425   27.353 
 2104  389.578    3.766    3.204   34.425   27.353 
 2105  389.578    3.766    3.204   34.425   27.353 
 2106  389.308    3.765    3.204   34.425   27.353 
 2107  389.308    3.765    3.204   34.425   27.353 
 2108  389.308    3.765    3.204   34.425   27.353 
 2109  389.308    3.765    3.204   34.425   27.353 
 2110  389.039    3.765    3.204   34.425   27.353 
 2111  389.039    3.765    3.204   34.424   27.352 
 2112  389.039    3.765    3.204   34.424   27.352 
 2113  389.039    3.764    3.204   34.424   27.352 
 2114  389.039    3.764    3.204   34.424   27.352 
 2115  389.039    3.764    3.204   34.424   27.352 
 2116  388.769    3.764    3.204   34.424   27.352 
 2117  388.769    3.764    3.204   34.424   27.352 
 2118  388.769    3.764    3.204   34.424   27.352 
 2119  388.769    3.764    3.204   34.424   27.352 
 2120  388.769    3.764    3.204   34.424   27.352 
 2121  388.499    3.765    3.204   34.424   27.352 
 2122  388.499    3.765    3.204   34.424   27.352 
 2123  388.499    3.765    3.204   34.424   27.352 
 2124  388.499    3.765    3.204   34.424   27.352 
 2125  388.229    3.765    3.204   34.423   27.351 
 2126  388.229    3.763    3.203   34.422   27.351 
 2127  388.229    3.762    3.203   34.422   27.351 
 2128  388.229    3.761    3.203   34.422   27.351 
 2129  387.959    3.761    3.203   34.422   27.351 
 2130  387.959    3.761    3.203   34.423   27.352 
 2131  387.959    3.760    3.203   34.423   27.352 
 2132  387.959    3.760    3.203   34.423   27.352 
 2133  387.959    3.760    3.203   34.423   27.352 
 2134  387.689    3.760    3.203   34.423   27.352 
 2135  387.689    3.760    3.203   34.423   27.352 
 2136  387.689    3.760    3.203   34.423   27.352 
 2137  387.419    3.760    3.203   34.424   27.352 
 2138  387.419    3.760    3.203   34.424   27.352 
 2139  387.419    3.760    3.203   34.424   27.352 
 2140  387.419    3.760    3.203   34.424   27.352 
 2141  387.419    3.760    3.203   34.424   27.352 
 2142  387.150    3.760    3.203   34.424   27.352 
 2143  387.150    3.760    3.203   34.422   27.351 
 2144  386.880    3.760    3.203   34.422   27.351 
 2145  386.880    3.760    3.203   34.422   27.351 
 2146  386.880    3.760    3.203   34.422   27.351 
 2147  386.610    3.760    3.203   34.422   27.351 
 2148  386.610    3.760    3.203   34.422   27.351 
 2149  386.610    3.760    3.203   34.422   27.351 
 2150  386.610    3.760    3.203   34.422   27.351 
 2151  386.340    3.760    3.203   34.422   27.351 
 2152  386.340    3.759    3.203   34.422   27.351 
 2153  386.340    3.758    3.203   34.422   27.351 
 2154  386.340    3.758    3.203   34.422   27.351 
 2155  386.070    3.758    3.203   34.422   27.351 
 2156  386.070    3.757    3.203   34.423   27.352 
 2157  385.800    3.757    3.203   34.424   27.353 
 2158  385.800    3.757    3.203   34.424   27.353 
 2159  385.800    3.757    3.203   34.424   27.353 
 2160  385.800    3.757    3.203   34.424   27.353 
 2161  385.800    3.757    3.203   34.424   27.353 
 2162  385.531    3.757    3.203   34.423   27.352 
 2163  385.531    3.758    3.203   34.423   27.352 
 2164  385.531    3.758    3.203   34.423   27.352 
 2165  385.261    3.758    3.203   34.423   27.352 
 2166  385.261    3.758    3.203   34.423   27.352 
 2167  385.261    3.758    3.203   34.423   27.352 
 2168  384.991    3.758    3.203   34.423   27.352 
 2169  384.991    3.758    3.203   34.423   27.352 
 2170  384.991    3.758    3.203   34.423   27.352 
 2171  384.721    3.758    3.203   34.423   27.352 
 2172  384.721    3.758    3.203   34.423   27.352 
 2173  384.721    3.758    3.203   34.423   27.352 
 2174  384.721    3.758    3.203   34.423   27.352 
 2175  384.451    3.758    3.203   34.423   27.352 
 2176  384.451    3.758    3.203   34.423   27.352 
 2177  384.451    3.758    3.203   34.423   27.352 
 2178  384.451    3.758    3.203   34.423   27.352 
 2179  384.181    3.758    3.203   34.423   27.352 
 2180  384.181    3.758    3.203   34.423   27.352 
 2181  383.911    3.757    3.203   34.423   27.352 
 2182  383.911    3.757    3.203   34.423   27.352 
 2183  383.911    3.757    3.203   34.423   27.352 
 2184  383.911    3.757    3.203   34.423   27.352 
 2185  383.911    3.756    3.203   34.422   27.352 
 2186  383.911    3.756    3.202   34.422   27.352 
 2187  383.642    3.755    3.202   34.422   27.352 
 2188  383.642    3.754    3.202   34.422   27.352 
 2189  383.372    3.754    3.202   34.422   27.352 
 2190  383.372    3.754    3.202   34.422   27.352 
 2191  383.372    3.754    3.202   34.422   27.352 
 2192  383.102    3.754    3.202   34.422   27.352 
 2193  383.102    3.754    3.202   34.422   27.352 
 2194  382.832    3.754    3.202   34.422   27.352 
 2195  382.832    3.754    3.202   34.422   27.352 
 2196  382.832    3.755    3.202   34.422   27.351 
 2197  382.562    3.755    3.202   34.422   27.351 
 2198  382.562    3.755    3.202   34.421   27.351 
 2199  382.292    3.755    3.202   34.421   27.351 
 2200  382.292    3.754    3.202   34.421   27.351 
 2201  382.022    3.754    3.202   34.421   27.351 
 2202  382.022    3.754    3.202   34.421   27.351 
 2203  382.022    3.754    3.202   34.421   27.351 
 2204  381.753    3.754    3.202   34.421   27.351 
 2205  381.753    3.754    3.202   34.421   27.351 
 2206  381.483    3.754    3.202   34.421   27.351 
 2207  381.483    3.754    3.202   34.421   27.351 
 2208  381.213    3.754    3.202   34.421   27.351 
 2209  381.213    3.753    3.202   34.421   27.351 
 2210  380.943    3.753    3.202   34.421   27.351 
 2211  380.673    3.753    3.202   34.421   27.351 
 2212  380.673    3.753    3.202   34.421   27.351 
 2213  380.673    3.753    3.202   34.421   27.351 
 2214  380.403    3.753    3.202   34.421   27.351 
 2215  380.403    3.753    3.202   34.421   27.351 
 2216  380.134    3.753    3.202   34.421   27.351 
 2217  380.134    3.753    3.202   34.421   27.351 
 2218  379.864    3.752    3.202   34.420   27.350 
 2219  379.594    3.752    3.202   34.420   27.350 
 2220  379.594    3.752    3.202   34.420   27.350 
 2221  379.594    3.752    3.202   34.420   27.350 
 2222  379.594    3.752    3.202   34.420   27.350 
 2223  379.324    3.752    3.202   34.420   27.350 
 2224  379.324    3.752    3.202   34.420   27.350 
 2225  379.054    3.751    3.202   34.420   27.350 
 2226  379.054    3.751    3.202   34.420   27.350 
 2227  379.054    3.751    3.202   34.420   27.350 
 2228  378.784    3.751    3.202   34.420   27.350 
 2229  378.784    3.751    3.202   34.420   27.350 
 2230  378.514    3.751    3.202   34.420   27.350 
 2231  378.514    3.751    3.202   34.420   27.350 
 2232  378.245    3.751    3.202   34.420   27.350 
 2233  378.245    3.751    3.202   34.420   27.350 
 2234  377.975    3.751    3.202   34.420   27.350 
 2235  377.705    3.751    3.202   34.420   27.350 
 2236  377.705    3.751    3.202   34.420   27.350 
 2237  377.435    3.751    3.202   34.420   27.351 
 2238  377.165    3.751    3.202   34.421   27.351 
 2239  377.165    3.751    3.202   34.421   27.351 
 2240  376.895    3.751    3.202   34.421   27.351 
 2241  376.626    3.751    3.202   34.421   27.351 
 2242  376.356    3.751    3.202   34.421   27.351 
 2243  376.086    3.751    3.202   34.421   27.351 
 2244  375.816    3.751    3.202   34.420   27.351 
 2245  375.816    3.750    3.202   34.420   27.351 
 2246  375.546    3.750    3.202   34.420   27.350 
 2247  375.276    3.750    3.201   34.420   27.350 
 2248  375.276    3.750    3.201   34.420   27.350 
 2249  375.276    3.749    3.201   34.419   27.350 
 2250  375.276    3.749    3.201   34.419   27.350 
 2251  375.006    3.749    3.201   34.419   27.350 
 2252  375.006    3.748    3.201   34.419   27.350 
 2253  374.737    3.748    3.201   34.419   27.350 
 2254  374.467    3.748    3.201   34.419   27.350 
 2255  374.467    3.748    3.201   34.419   27.350 
 2256  374.197    3.747    3.201   34.419   27.350 
 2257  373.927    3.747    3.201   34.419   27.350 
 2258  373.657    3.747    3.201   34.419   27.350 
 2259  373.657    3.747    3.201   34.419   27.350 
 2260  373.387    3.747    3.201   34.419   27.350 
 2261  373.118    3.747    3.201   34.418   27.349 
 2262  373.118    3.747    3.201   34.418   27.349 
 2263  373.118    3.747    3.201   34.418   27.349 
 2264  372.848    3.747    3.201   34.418   27.349 
 2265  372.578    3.747    3.201   34.418   27.349 
 2266  372.578    3.747    3.201   34.418   27.349 
 2267  372.308    3.747    3.201   34.419   27.349 
 2268  372.308    3.747    3.201   34.419   27.349 
 2269  372.308    3.747    3.201   34.419   27.349 
 2270  371.768    3.747    3.201   34.419   27.350 
 2271  371.768    3.747    3.201   34.419   27.350 
 2272  371.768    3.747    3.201   34.419   27.350 
 2273  371.498    3.747    3.201   34.419   27.350 
 2274  371.229    3.747    3.201   34.419   27.350 
 2275  371.229    3.747    3.201   34.418   27.349 
 2276  371.229    3.747    3.201   34.418   27.349 
 2277  370.689    3.747    3.201   34.418   27.349 
 2278  370.419    3.747    3.201   34.418   27.349 
 2279  370.149    3.747    3.201   34.419   27.349 
 2280  369.879    3.747    3.201   34.419   27.350 
 2281  369.609    3.750    3.202   34.424   27.353 
 2282  369.340    3.757    3.203   34.424   27.353 
 2283  368.800    3.769    3.203   34.427   27.354 
 2284  368.800    3.769    3.203   34.429   27.356 
 2285  368.530    3.772    3.204   34.430   27.356 
 2286  368.260    3.772    3.204   34.431   27.356 
 2287  367.990    3.779    3.205   34.431   27.356 
 2288  367.451    3.784    3.205   34.432   27.356 
 2289  367.451    3.785    3.205   34.432   27.356 
 2290  366.911    3.785    3.205   34.431   27.356 
 2291  366.911    3.785    3.205   34.431   27.356 
 2292  366.911    3.786    3.205   34.431   27.355 
 2293  366.911    3.785    3.205   34.431   27.355 
 2294  366.911    3.785    3.205   34.431   27.355 
 2295  366.641    3.784    3.205   34.430   27.355 
 2296  366.641    3.784    3.205   34.430   27.355 
 2297  366.371    3.785    3.205   34.431   27.355 
 2298  366.371    3.786    3.205   34.431   27.355 
 2299  366.371    3.788    3.206   34.436   27.358 
 2300  366.102    3.798    3.207   34.436   27.358 
 2301  366.102    3.800    3.207   34.436   27.358 
 2302  366.102    3.800    3.207   34.436   27.358 
 2303  366.102    3.800    3.207   34.436   27.358 
 2304  366.102    3.800    3.207   34.436   27.358 
 2305  365.832    3.799    3.207   34.436   27.358 
 2306  365.832    3.798    3.206   34.436   27.358 
 2307  365.562    3.794    3.206   34.437   27.359 
 2308  365.562    3.794    3.206   34.437   27.359 
 2309  365.562    3.794    3.206   34.437   27.359 
 2310  365.292    3.794    3.206   34.437   27.359 
 2311  365.022    3.796    3.206   34.437   27.359 
 2312  365.022    3.798    3.207   34.439   27.360 
 2313  365.022    3.802    3.207   34.439   27.360 
 2314  365.022    3.805    3.207   34.439   27.360 
 2315  364.752    3.805    3.207   34.439   27.360 
 2316  364.752    3.805    3.207   34.439   27.360 
 2317  364.482    3.805    3.207   34.439   27.360 
 2318  364.482    3.805    3.207   34.439   27.360 
 2319  364.213    3.805    3.207   34.437   27.358 
 2320  363.943    3.804    3.207   34.437   27.358 
 2321  363.943    3.804    3.207   34.436   27.358 
 2322  363.943    3.805    3.207   34.436   27.358 
 2323  363.673    3.805    3.207   34.436   27.358 
 2324  363.673    3.805    3.207   34.436   27.357 
 2325  363.673    3.806    3.207   34.435   27.357 
 2326  363.403    3.808    3.207   34.435   27.356 
 2327  363.403    3.810    3.207   34.434   27.355 
 2328  363.403    3.811    3.207   34.434   27.355 
 2329  363.133    3.811    3.207   34.434   27.355 
 2330  363.133    3.812    3.207   34.434   27.355 
 2331  363.133    3.812    3.208   34.434   27.355 
 2332  363.133    3.812    3.208   34.434   27.355 
 2333  363.133    3.816    3.208   34.433   27.354 
 2334  363.133    3.816    3.208   34.433   27.354 
 2335  363.133    3.819    3.208   34.433   27.354 
 2336  363.133    3.822    3.208   34.433   27.354 
 2337  363.133    3.823    3.208   34.434   27.354 
 2338  362.863    3.826    3.209   34.434   27.354 
 2339  362.863    3.828    3.209   34.435   27.354 
 2340  362.863    3.828    3.209   34.436   27.355 
 2341  362.863    3.828    3.209   34.436   27.355 
 2342  362.863    3.829    3.209   34.436   27.355 
 2343  362.863    3.832    3.210   34.436   27.355 
 2344  362.863    3.835    3.210   34.437   27.355 
 2345  362.863    3.835    3.210   34.437   27.355 
 2346  362.863    3.835    3.210   34.437   27.356 
 2347  362.863    3.835    3.210   34.439   27.357 
 2348  362.594    3.834    3.210   34.442   27.360 
 2349  362.594    3.833    3.210   34.444   27.361 
 2350  362.594    3.833    3.210   34.445   27.362 
 2351  362.594    3.833    3.210   34.445   27.362 
 2352  362.594    3.833    3.210   34.445   27.362 
 2353  362.594    3.833    3.210   34.445   27.362 
 2354  362.594    3.834    3.210   34.445   27.362 
 2355  362.594    3.834    3.211   34.444   27.361 
 2356  362.594    3.838    3.211   34.444   27.361 
 2357  362.594    3.843    3.211   34.444   27.360 
 2358  362.594    3.847    3.211   34.444   27.360 
 2359  362.594    3.849    3.212   34.444   27.360 
 2360  362.594    3.850    3.212   34.444   27.360 
 2361  362.594    3.853    3.212   34.446   27.361 
 2362  362.324    3.854    3.212   34.447   27.361 
 2363  362.324    3.854    3.212   34.447   27.361 
 2364  362.324    3.854    3.213   34.449   27.363 
 2365  362.324    3.855    3.213   34.449   27.363 
 2366  362.324    3.855    3.213   34.449   27.363 
 2367  362.324    3.855    3.213   34.450   27.363 
 2368  362.324    3.856    3.213   34.450   27.363 
 2369  362.324    3.858    3.213   34.450   27.363 
 2370  362.324    3.859    3.213   34.450   27.363 
 2371  362.324    3.859    3.213   34.450   27.363 
 2372  362.324    3.860    3.213   34.451   27.364 
 2373  362.324    3.860    3.213   34.451   27.364 
 2374  362.324    3.861    3.213   34.452   27.364 
 2375  362.324    3.863    3.214   34.452   27.364 
 2376  362.324    3.863    3.214   34.452   27.364 
 2377  362.324    3.864    3.214   34.452   27.364 
 2378  362.324    3.865    3.214   34.452   27.364 
 2379  362.324    3.865    3.214   34.452   27.364 
 2380  362.054    3.865    3.214   34.452   27.364 
 2381  362.054    3.867    3.214   34.452   27.364 
 2382  362.054    3.867    3.214   34.452   27.364 
 2383  362.054    3.867    3.214   34.452   27.364 
 2384  362.054    3.868    3.214   34.451   27.363 
 2385  362.054    3.868    3.214   34.451   27.363 
 2386  362.054    3.869    3.214   34.451   27.363 
 2387  362.054    3.869    3.214   34.451   27.363 
 2388  362.054    3.870    3.214   34.454   27.365 
 2389  362.054    3.870    3.214   34.456   27.367 
 2390  362.054    3.870    3.215   34.457   27.368 
 2391  362.054    3.870    3.215   34.458   27.368 
 2392  362.054    3.870    3.215   34.458   27.368 
 2393  362.054    3.871    3.215   34.458   27.368 
 2394  362.054    3.871    3.215   34.458   27.369 
 2395  362.054    3.872    3.215   34.458   27.368 
 2396  362.054    3.874    3.215   34.458   27.368 
 2397  362.054    3.874    3.215   34.459   27.368 
 2398  362.054    3.875    3.215   34.458   27.369 
 2399  362.054    3.875    3.215   34.459   27.369 
 2400  361.784    3.875    3.215   34.459   27.369 
 2401  361.784    3.875    3.215   34.459   27.369 
 2402  361.784    3.875    3.215   34.460   27.369 
 2403  361.784    3.875    3.215   34.460   27.369 
 2404  361.784    3.875    3.215   34.460   27.369 
 2405  361.784    3.875    3.215   34.460   27.369 
 2406  361.784    3.875    3.215   34.460   27.369 
 2407  361.784    3.876    3.215   34.460   27.369 
 2408  361.784    3.876    3.215   34.460   27.369 
 2409  361.784    3.876    3.215   34.460   27.369 
 2410  361.784    3.876    3.215   34.461   27.370 
 2411  361.784    3.876    3.215   34.461   27.370 
 2412  361.784    3.877    3.215   34.461   27.370 
 2413  361.784    3.877    3.216   34.462   27.371 
 2414  361.784    3.877    3.216   34.462   27.371 
 2415  361.784    3.877    3.216   34.462   27.371 
 2416  361.784    3.877    3.216   34.462   27.371 
 2417  361.784    3.877    3.216   34.463   27.371 
 2418  361.784    3.877    3.216   34.463   27.371 
 2419  361.784    3.877    3.216   34.463   27.371 
 2420  361.784    3.878    3.216   34.463   27.371 
 2421  361.514    3.878    3.216   34.463   27.371 
 2422  361.514    3.880    3.216   34.461   27.370 
 2423  361.514    3.880    3.216   34.459   27.368 
 2424  361.514    3.880    3.216   34.459   27.368 
 2425  361.514    3.880    3.216   34.459   27.368 
 2426  361.514    3.880    3.216   34.459   27.368 
 2427  361.514    3.880    3.216   34.461   27.370 
 2428  361.514    3.880    3.216   34.461   27.370 
 2429  361.514    3.880    3.216   34.461   27.370 
 2430  361.514    3.881    3.216   34.461   27.370 
 2431  361.514    3.882    3.216   34.461   27.369 
 2432  361.244    3.882    3.216   34.461   27.369 
 2433  361.244    3.882    3.216   34.461   27.369 
 2434  361.244    3.882    3.216   34.461   27.369 
 2435  361.244    3.882    3.216   34.461   27.369 
 2436  361.244    3.882    3.216   34.463   27.371 
 2437  361.244    3.882    3.216   34.463   27.371 
 2438  360.974    3.881    3.216   34.464   27.372 
 2439  360.974    3.880    3.216   34.465   27.373 
 2440  360.705    3.880    3.216   34.465   27.373 
 2441  360.705    3.880    3.216   34.465   27.373 
 2442  360.705    3.880    3.216   34.465   27.373 
 2443  360.705    3.880    3.216   34.465   27.373 
 2444  360.705    3.882    3.216   34.463   27.371 
 2445  360.435    3.882    3.216   34.463   27.371 
 2446  360.435    3.882    3.216   34.463   27.371 
 2447  360.435    3.882    3.216   34.463   27.371 
 2448  360.165    3.882    3.216   34.463   27.371 
 2449  360.165    3.883    3.216   34.462   27.370 
 2450  360.165    3.883    3.216   34.462   27.370 
 2451  360.165    3.885    3.216   34.462   27.370 
 2452  359.895    3.885    3.216   34.462   27.370 
 2453  359.895    3.885    3.216   34.463   27.371 
 2454  359.895    3.886    3.216   34.463   27.371 
 2455  359.625    3.886    3.216   34.463   27.371 
 2456  359.625    3.886    3.216   34.463   27.371 
 2457  359.625    3.886    3.216   34.463   27.371 
 2458  359.355    3.886    3.216   34.463   27.371 
 2459  359.355    3.886    3.216   34.463   27.371 
 2460  359.355    3.886    3.216   34.463   27.371 
 2461  359.355    3.886    3.216   34.463   27.371 
 2462  359.086    3.886    3.216   34.463   27.371 
 2463  359.086    3.887    3.217   34.464   27.371 
 2464  359.086    3.887    3.217   34.464   27.372 
 2465  359.086    3.887    3.217   34.464   27.372 
 2466  358.816    3.888    3.217   34.464   27.372 
 2467  358.816    3.889    3.217   34.464   27.372 
 2468  358.816    3.889    3.217   34.464   27.372 
 2469  358.816    3.889    3.217   34.464   27.372 
 2470  358.816    3.889    3.217   34.464   27.372 
 2471  358.816    3.889    3.217   34.464   27.372 
 2472  358.816    3.890    3.217   34.464   27.371 
 2473  358.546    3.891    3.217   34.464   27.371 
 2474  358.546    3.891    3.217   34.463   27.371 
 2475  358.546    3.892    3.217   34.463   27.371 
 2476  358.276    3.893    3.217   34.464   27.371 
 2477  358.276    3.893    3.217   34.464   27.371 
 2478  358.276    3.893    3.217   34.464   27.371 
 2479  358.276    3.893    3.217   34.464   27.371 
 2480  358.276    3.893    3.217   34.464   27.371 
 2481  358.276    3.893    3.217   34.466   27.373 
 2482  358.276    3.893    3.217   34.466   27.373 
 2483  358.276    3.893    3.217   34.468   27.374 
 2484  358.006    3.893    3.217   34.468   27.374 
 2485  358.006    3.893    3.217   34.468   27.374 
 2486  358.006    3.893    3.217   34.468   27.374 
 2487  358.006    3.893    3.217   34.468   27.374 
 2488  358.006    3.894    3.217   34.467   27.373 
 2489  358.006    3.894    3.217   34.467   27.373 
 2490  357.736    3.894    3.217   34.467   27.373 
 2491  357.736    3.894    3.217   34.467   27.373 
 2492  357.736    3.894    3.217   34.467   27.373 
 2493  357.736    3.895    3.217   34.467   27.373 
 2494  357.736    3.895    3.217   34.467   27.373 
 2495  357.736    3.895    3.218   34.468   27.374 
 2496  357.736    3.895    3.218   34.468   27.374 
 2497  357.466    3.895    3.218   34.469   27.375 
 2498  357.466    3.895    3.218   34.469   27.375 
 2499  357.466    3.896    3.218   34.469   27.375 
 2500  357.466    3.896    3.218   34.469   27.375 
 2501  357.466    3.897    3.218   34.468   27.374 
 2502  357.466    3.898    3.218   34.468   27.374 
 2503  357.197    3.899    3.218   34.468   27.374 
 2504  357.197    3.899    3.218   34.468   27.374 
 2505  357.197    3.900    3.218   34.468   27.374 
 2506  357.197    3.900    3.218   34.468   27.374 
 2507  356.927    3.900    3.218   34.468   27.374 
 2508  356.927    3.900    3.218   34.469   27.374 
 2509  356.927    3.901    3.218   34.469   27.374 
 2510  356.927    3.901    3.218   34.469   27.374 
 2511  356.927    3.901    3.218   34.470   27.375 
 2512  356.657    3.901    3.218   34.470   27.375 
 2513  356.657    3.901    3.218   34.470   27.375 
 2514  356.657    3.901    3.218   34.470   27.375 
 2515  356.657    3.901    3.218   34.470   27.375 
 2516  356.387    3.901    3.218   34.471   27.375 
 2517  356.387    3.901    3.218   34.471   27.375 
 2518  356.387    3.901    3.218   34.471   27.375 
 2519  356.387    3.901    3.218   34.471   27.375 
 2520  356.117    3.902    3.218   34.470   27.375 
 2521  356.117    3.902    3.218   34.470   27.375 
 2522  356.117    3.902    3.218   34.470   27.375 
 2523  355.847    3.902    3.218   34.470   27.375 
 2524  355.847    3.902    3.218   34.470   27.375 
 2525  355.847    3.902    3.218   34.470   27.375 
 2526  355.578    3.902    3.218   34.470   27.375 
 2527  355.578    3.902    3.218   34.472   27.376 
 2528  355.578    3.902    3.218   34.472   27.376 
 2529  355.578    3.902    3.218   34.472   27.376 
 2530  355.578    3.902    3.218   34.472   27.376 
 2531  355.308    3.902    3.218   34.472   27.376 
 2532  355.308    3.902    3.218   34.472   27.376 
 2533  355.308    3.902    3.218   34.472   27.376 
 2534  355.308    3.902    3.218   34.472   27.376 
 2535  355.308    3.902    3.218   34.472   27.376 
 2536  355.308    3.902    3.218   34.472   27.376 
 2537  355.308    3.902    3.218   34.472   27.376 
 2538  355.038    3.902    3.218   34.472   27.376 
 2539  355.038    3.902    3.218   34.472   27.376 
 2540  355.038    3.902    3.218   34.472   27.376 
 2541  355.038    3.902    3.218   34.472   27.376 
 2542  354.768    3.902    3.218   34.472   27.376 
 2543  354.768    3.902    3.218   34.472   27.376 
 2544  354.768    3.903    3.218   34.472   27.376 
 2545  354.768    3.903    3.218   34.472   27.376 
 2546  354.768    3.903    3.218   34.471   27.376 
 2547  354.768    3.903    3.218   34.471   27.376 
 2548  354.768    3.903    3.218   34.471   27.376 
 2549  354.498    3.903    3.218   34.471   27.376 
 2550  354.498    3.903    3.218   34.471   27.376 
 2551  354.498    3.903    3.218   34.471   27.376 
 2552  354.498    3.903    3.218   34.471   27.376 
 2553  354.498    3.903    3.218   34.471   27.376 
 2554  354.228    3.903    3.218   34.472   27.376 
 2555  354.228    3.903    3.218   34.472   27.376 
 2556  354.228    3.903    3.218   34.472   27.376 
 2557  354.228    3.903    3.218   34.472   27.376 
 2558  354.228    3.903    3.218   34.472   27.376 
 2559  353.959    3.903    3.218   34.472   27.376 
 2560  353.959    3.903    3.218   34.472   27.376 
 2561  353.959    3.903    3.218   34.472   27.376 
 2562  353.959    3.903    3.218   34.472   27.376 
 2563  353.689    3.903    3.218   34.472   27.376 
 2564  353.419    3.903    3.218   34.472   27.376 
 2565  353.419    3.903    3.218   34.472   27.376 
 2566  353.419    3.903    3.218   34.472   27.376 
 2567  353.149    3.903    3.218   34.472   27.376 
 2568  353.149    3.903    3.218   34.472   27.376 
 2569  352.879    3.903    3.218   34.472   27.376 
 2570  352.879    3.903    3.218   34.472   27.376 
 2571  352.609    3.903    3.218   34.472   27.376 
 2572  352.609    3.903    3.218   34.472   27.376 
 2573  352.339    3.903    3.218   34.473   27.377 
 2574  352.070    3.903    3.218   34.473   27.377 
 2575  351.800    3.903    3.218   34.473   27.377 
 2576  351.800    3.903    3.218   34.473   27.377 
 2577  351.530    3.903    3.218   34.473   27.377 
 2578  351.260    3.903    3.218   34.473   27.377 
 2579  350.990    3.903    3.218   34.473   27.377 
 2580  350.990    3.903    3.218   34.473   27.377 
 2581  350.720    3.903    3.218   34.473   27.377 
 2582  350.720    3.903    3.218   34.473   27.377 
 2583  350.181    3.903    3.218   34.474   27.378 
 2584  350.181    3.903    3.218   34.474   27.378 
 2585  349.911    3.903    3.218   34.474   27.378 
 2586  349.911    3.903    3.218   34.474   27.378 
 2587  349.641    3.903    3.218   34.474   27.378 
 2588  349.641    3.902    3.218   34.474   27.378 
 2589  349.641    3.902    3.218   34.474   27.378 
 2590  349.371    3.902    3.218   34.473   27.377 
 2591  349.371    3.902    3.218   34.473   27.377 
 2592  349.371    3.902    3.218   34.473   27.377 
 2593  349.101    3.902    3.218   34.473   27.377 
 2594  348.832    3.902    3.218   34.474   27.377 
 2595  348.832    3.902    3.218   34.474   27.377 
 2596  348.562    3.902    3.218   34.474   27.378 
 2597  348.562    3.902    3.218   34.474   27.378 
 2598  348.292    3.902    3.218   34.474   27.378 
 2599  348.022    3.902    3.218   34.474   27.378 
 2600  348.022    3.902    3.218   34.474   27.378 
 2601  347.752    3.902    3.218   34.474   27.378 
 2602  347.482    3.902    3.218   34.473   27.377 
 2603  347.482    3.902    3.218   34.473   27.377 
 2604  346.943    3.902    3.218   34.473   27.377 
 2605  346.943    3.902    3.218   34.473   27.377 
 2606  346.673    3.902    3.218   34.473   27.377 
 2607  346.673    3.902    3.218   34.473   27.377 
 2608  346.403    3.902    3.218   34.473   27.377 
 2609  346.133    3.902    3.218   34.473   27.377 
 2610  345.863    3.902    3.218   34.473   27.377 
 2611  345.593    3.901    3.218   34.474   27.378 
 2612  345.324    3.901    3.218   34.474   27.378 
 2613  345.054    3.900    3.218   34.474   27.378 
 2614  345.054    3.900    3.218   34.474   27.378 
 2615  344.784    3.900    3.218   34.472   27.377 
 2616  344.514    3.901    3.218   34.472   27.376 
 2617  344.244    3.901    3.218   34.472   27.376 
 2618  344.244    3.901    3.218   34.472   27.376 
 2619  343.705    3.901    3.218   34.472   27.376 
 2620  343.705    3.901    3.218   34.472   27.376 
 2621  343.165    3.901    3.218   34.472   27.376 
 2622  342.895    3.901    3.218   34.472   27.376 
 2623  342.355    3.901    3.218   34.472   27.377 
 2624  342.085    3.901    3.218   34.472   27.377 
 2625  341.816    3.901    3.218   34.473   27.377 
 2626  341.546    3.901    3.218   34.473   27.377 
 2627  341.276    3.901    3.218   34.473   27.377 
 2628  340.736    3.901    3.218   34.473   27.377 
 2629  340.736    3.900    3.218   34.473   27.377 
 2630  340.466    3.899    3.218   34.474   27.378 
 2631  340.466    3.898    3.218   34.474   27.378 
 2632  340.197    3.898    3.217   34.474   27.378 
 2633  339.927    3.897    3.217   34.474   27.378 
 2634  339.387    3.896    3.217   34.474   27.378 
 2635  339.117    3.895    3.217   34.473   27.378 
 2636  338.847    3.894    3.217   34.473   27.378 
 2637  338.578    3.893    3.217   34.473   27.378 
 2638  338.308    3.893    3.217   34.473   27.378 
 2639  338.308    3.890    3.217   34.473   27.378 
 2640  338.038    3.890    3.217   34.472   27.378 
 2641  337.768    3.888    3.217   34.472   27.378 
 2642  337.498    3.886    3.216   34.472   27.378 
 2643  337.228    3.886    3.216   34.471   27.377 
 2644  336.959    3.886    3.216   34.470   27.376 
 2645  336.419    3.886    3.216   34.470   27.376 
 2646  336.149    3.886    3.216   34.470   27.376 
 2647  335.879    3.886    3.216   34.470   27.376 
 2648  335.339    3.886    3.216   34.470   27.376 
 2649  334.800    3.886    3.216   34.470   27.377 
 2650  333.990    3.886    3.216   34.470   27.377 
 2651  333.720    3.885    3.216   34.470   27.377 
 2652  332.911    3.885    3.216   34.470   27.377 
 2653  332.641    3.885    3.216   34.470   27.377 
 2654  332.371    3.884    3.215   34.470   27.377 
 2655  332.101    3.882    3.215   34.470   27.377 
 2656  331.562    3.882    3.215   34.470   27.377 
 2657  331.292    3.881    3.215   34.471   27.378 
 2658  331.022    3.877    3.215   34.471   27.378 
 2659  330.482    3.875    3.215   34.471   27.378 
 2660  330.213    3.872    3.214   34.471   27.378 
 2661  329.673    3.872    3.214   34.467   27.376 
 2662  329.403    3.871    3.214   34.467   27.376 
 2663  328.594    3.871    3.214   34.467   27.375 
 2664  328.324    3.871    3.214   34.465   27.374 
 2665  328.324    3.871    3.214   34.465   27.374 
 2666  327.784    3.871    3.214   34.465   27.374 
 2667  327.514    3.871    3.214   34.464   27.373 
 2668  327.244    3.872    3.214   34.464   27.373 
 2669  327.244    3.872    3.214   34.464   27.373 
 2670  326.705    3.872    3.214   34.464   27.373 
 2671  326.435    3.872    3.214   34.464   27.373 
 2672  325.895    3.872    3.214   34.464   27.373 
 2673  325.086    3.871    3.214   34.465   27.374 
 2674  324.276    3.870    3.213   34.465   27.374 
 2675  324.006    3.866    3.213   34.467   27.376 
 2676  323.467    3.865    3.213   34.467   27.376 
 2677  323.197    3.864    3.213   34.468   27.377 
 2678  322.927    3.862    3.213   34.468   27.377 
 2679  322.387    3.856    3.213   34.468   27.378 
 2680  321.848    3.850    3.212   34.469   27.380 
 2681  321.578    3.847    3.212   34.469   27.380 
 2682  321.038    3.843    3.212   34.469   27.380 
 2683  320.768    3.839    3.211   34.469   27.380 
 2684  320.498    3.839    3.211   34.468   27.379 
 2685  319.959    3.839    3.211   34.468   27.379 
 2686  319.689    3.839    3.210   34.468   27.379 
 2687  319.149    3.833    3.210   34.467   27.379 
 2688  318.610    3.831    3.210   34.467   27.379 
 2689  317.800    3.829    3.210   34.465   27.378 
 2690  316.991    3.829    3.210   34.465   27.378 
 2691  316.181    3.829    3.210   34.464   27.378 
 2692  315.372    3.825    3.209   34.463   27.377 
 2693  315.102    3.823    3.209   34.460   27.375 
 2694  314.562    3.822    3.208   34.459   27.375 
 2695  314.022    3.821    3.208   34.459   27.375 
 2696  313.483    3.819    3.208   34.459   27.375 
 2697  312.943    3.817    3.208   34.459   27.375 
 2698  312.403    3.816    3.208   34.459   27.375 
 2699  311.594    3.815    3.208   34.459   27.375 
 2700  311.054    3.813    3.207   34.458   27.375 
 2701  310.514    3.812    3.207   34.458   27.375 
 2702  310.245    3.810    3.207   34.458   27.375 
 2703  309.435    3.809    3.207   34.459   27.375 
 2704  309.165    3.807    3.207   34.459   27.376 
 2705  308.086    3.806    3.207   34.460   27.376 
 2706  307.546    3.805    3.207   34.460   27.377 
 2707  306.737    3.801    3.207   34.464   27.380 
 2708  306.197    3.799    3.207   34.464   27.380 
 2709  305.657    3.793    3.206   34.464   27.381 
 2710  305.388    3.789    3.206   34.464   27.381 
 2711  304.848    3.789    3.205   34.464   27.381 
 2712  304.308    3.784    3.205   34.464   27.381 
 2713  303.499    3.779    3.204   34.462   27.380 
 2714  303.229    3.775    3.203   34.455   27.375 
 2715  302.689    3.772    3.203   34.454   27.375 
 2716  302.150    3.771    3.203   34.453   27.375 
 2717  301.610    3.771    3.202   34.446   27.369 
 2718  300.261    3.770    3.202   34.444   27.367 
 2719  299.451    3.770    3.202   34.442   27.366 
 2720  298.372    3.767    3.202   34.441   27.366 
 2721  297.832    3.767    3.201   34.441   27.366 
 2722  297.563    3.767    3.201   34.442   27.366 
 2723  297.023    3.767    3.201   34.442   27.366 
 2724  296.753    3.766    3.201   34.442   27.366 
 2725  295.404    3.764    3.201   34.443   27.367 
 2726  294.325    3.763    3.201   34.444   27.368 
 2727  293.785    3.763    3.201   34.444   27.368 
 2728  292.975    3.762    3.201   34.444   27.368 
 2729  292.706    3.761    3.201   34.444   27.368 
 2730  292.166    3.759    3.200   34.443   27.368 
 2731  291.356    3.758    3.200   34.443   27.368 
 2732  290.277    3.757    3.200   34.442   27.367 
 2733  289.198    3.756    3.200   34.441   27.366 
 2734  288.928    3.755    3.200   34.440   27.366 
 2735  288.388    3.755    3.200   34.440   27.366 
 2736  287.579    3.754    3.199   34.438   27.365 
 2737  286.769    3.754    3.199   34.438   27.364 
 2738  286.499    3.753    3.199   34.438   27.364 
 2739  285.960    3.753    3.199   34.434   27.361 
 2740  285.420    3.753    3.199   34.434   27.361 
 2741  284.611    3.754    3.199   34.434   27.361 
 2742  283.801    3.754    3.198   34.430   27.358 
 2743  282.722    3.754    3.198   34.430   27.358 
 2744  281.373    3.754    3.198   34.430   27.358 
 2745  280.563    3.754    3.198   34.430   27.358 
 2746  280.293    3.754    3.198   34.430   27.358 
 2747  279.484    3.751    3.198   34.434   27.361 
 2748  278.674    3.749    3.198   34.435   27.362 
 2749  277.865    3.747    3.198   34.436   27.363 
 2750  277.055    3.746    3.198   34.436   27.364 
 2751  276.246    3.744    3.198   34.439   27.366 
 2752  275.706    3.743    3.198   34.439   27.366 
 2753  274.897    3.743    3.198   34.439   27.366 
 2754  274.087    3.741    3.198   34.439   27.366 
 2755  273.008    3.741    3.198   34.438   27.366 
 2756  271.929    3.739    3.197   34.438   27.365 
 2757  271.389    3.739    3.197   34.435   27.363 
 2758  270.849    3.738    3.197   34.434   27.363 
 2759  269.770    3.737    3.197   34.432   27.361 
 2760  269.500    3.736    3.196   34.429   27.359 
 2761  268.691    3.736    3.196   34.429   27.359 
 2762  268.151    3.735    3.196   34.429   27.359 
 2763  267.342    3.735    3.196   34.429   27.359 
 2764  266.262    3.734    3.196   34.428   27.358 
 2765  264.913    3.734    3.196   34.427   27.358 
 2766  263.564    3.734    3.196   34.427   27.358 
 2767  262.485    3.734    3.196   34.427   27.358 
 2768  262.215    3.734    3.196   34.427   27.358 
 2769  261.136    3.735    3.195   34.425   27.356 
 2770  260.596    3.735    3.195   34.423   27.354 
 2771  260.056    3.735    3.195   34.422   27.353 
 2772  259.247    3.736    3.195   34.422   27.353 
 2773  258.438    3.736    3.195   34.422   27.353 
 2774  257.358    3.736    3.195   34.422   27.353 
 2775  256.009    3.735    3.195   34.422   27.353 
 2776  254.930    3.735    3.195   34.422   27.354 
 2777  254.390    3.732    3.195   34.426   27.357 
 2778  253.581    3.730    3.195   34.428   27.359 
 2779  252.771    3.727    3.195   34.430   27.360 
 2780  251.962    3.726    3.195   34.431   27.362 
 2781  251.422    3.720    3.195   34.432   27.363 
 2782  250.613    3.720    3.194   34.432   27.363 
 2783  249.803    3.717    3.194   34.432   27.363 
 2784  248.454    3.716    3.194   34.432   27.363 
 2785  247.105    3.714    3.194   34.432   27.363 
 2786  246.026    3.713    3.193   34.432   27.364 
 2787  245.756    3.711    3.193   34.432   27.364 
 2788  244.946    3.709    3.193   34.432   27.364 
 2789  244.407    3.707    3.193   34.432   27.364 
 2790  243.597    3.704    3.193   34.432   27.364 
 2791  242.518    3.703    3.193   34.432   27.364 
 2792  241.169    3.703    3.192   34.432   27.364 
 2793  240.359    3.700    3.192   34.432   27.365 
 2794  239.550    3.695    3.192   34.431   27.365 
 2795  238.471    3.691    3.191   34.431   27.365 
 2796  237.122    3.690    3.191   34.431   27.365 
 2797  236.582    3.688    3.191   34.430   27.365 
 2798  235.503    3.688    3.191   34.429   27.364 
 2799  234.963    3.685    3.189   34.424   27.360 
 2800  234.154    3.682    3.189   34.424   27.360 
 2801  233.344    3.680    3.189   34.424   27.360 
 2802  232.535    3.678    3.189   34.424   27.360 
 2803  230.916    3.676    3.189   34.424   27.361 
 2804  229.297    3.673    3.189   34.426   27.363 
 2805  228.757    3.671    3.188   34.426   27.363 
 2806  228.218    3.665    3.188   34.427   27.365 
 2807  227.138    3.658    3.188   34.434   27.371 
 2808  225.519    3.652    3.188   34.438   27.374 
 2809  224.440    3.648    3.188   34.442   27.378 
 2810  223.901    3.642    3.188   34.453   27.387 
 2811  223.091    3.631    3.188   34.465   27.398 
 2812  221.742    3.620    3.188   34.477   27.409 
 2813  220.393    3.610    3.188   34.478   27.411 
 2814  219.584    3.601    3.188   34.479   27.412 
 2815  218.774    3.578    3.184   34.479   27.412 
 2816  217.695    3.575    3.184   34.479   27.412 
 2817  217.155    3.561    3.184   34.478   27.412 
 2818  216.346    3.561    3.182   34.466   27.406 
 2819  214.997    3.546    3.179   34.454   27.398 
 2820  213.917    3.536    3.178   34.453   27.398 
 2821  212.299    3.535    3.178   34.453   27.398 
 2822  211.219    3.530    3.177   34.453   27.398 
 2823  210.410    3.523    3.177   34.454   27.400 
 2824  209.331    3.508    3.177   34.460   27.406 
 2825  208.251    3.496    3.175   34.467   27.413 
 2826  207.172    3.471    3.174   34.467   27.415 
 2827  206.363    3.451    3.173   34.467   27.417 
 2828  205.283    3.443    3.172   34.471   27.418 
 2829  203.395    3.435    3.170   34.471   27.420 
 2830  202.585    3.431    3.169   34.466   27.421 
 2831  201.776    3.417    3.169   34.466   27.422 
 2832  200.697    3.409    3.166   34.466   27.422 
 2833  200.157    3.393    3.166   34.479   27.432 
 2834  199.078    3.374    3.166   34.483   27.437 
 2835  197.998    3.358    3.166   34.483   27.437 
 2836  196.919    3.351    3.164   34.483   27.437 
 2837  194.761    3.346    3.164   34.483   27.437 
 2838  193.951    3.343    3.162   34.479   27.437 
 2839  192.872    3.334    3.162   34.469   27.430 
 2840  191.523    3.331    3.157   34.433   27.402 
 2841  190.174    3.328    3.154   34.401   27.377 
 2842  189.365    3.323    3.154   34.399   27.375 
 2843  188.555    3.322    3.154   34.399   27.375 
 2844  187.206    3.322    3.150   34.358   27.343 
 2845  185.857    3.323    3.150   34.358   27.342 
 2846  185.048    3.321    3.149   34.342   27.330 
 2847  183.968    3.321    3.148   34.335   27.324 
 2848  182.889    3.319    3.148   34.334   27.324 
 2849  182.080    3.319    3.148   34.334   27.324 
 2850  181.270    3.310    3.147   34.334   27.324 
 2851  179.651    3.301    3.146   34.329   27.321 
 2852  178.033    3.300    3.144   34.318   27.313 
 2853  176.953    3.295    3.144   34.317   27.312 
 2854  175.604    3.291    3.143   34.315   27.311 
 2855  174.795    3.282    3.143   34.314   27.311 
 2856  173.176    3.281    3.142   34.310   27.308 
 2857  172.367    3.280    3.141   34.301   27.301 
 2858  171.287    3.276    3.140   34.299   27.300 
 2859  169.938    3.274    3.140   34.294   27.300 
 2860  168.320    3.262    3.139   34.294   27.300 
 2861  167.240    3.240    3.136   34.294   27.300 
 2862  166.161    3.210    3.134   34.301   27.308 
 2863  165.352    3.197    3.134   34.303   27.310 
 2864  164.542    3.149    3.132   34.333   27.339 
 2865  163.463    3.086    3.130   34.352   27.360 
 2866  161.574    2.997    3.124   34.376   27.387 
 2867  160.225    2.954    3.116   34.396   27.407 
 2868  159.416    2.875    3.116   34.396   27.414 
 2869  158.337    2.841    3.115   34.416   27.433 
 2870  156.448    2.819    3.110   34.424   27.442 
 2871  155.369    2.801    3.105   34.424   27.444 
 2872  154.560    2.757    3.104   34.424   27.448 
 2873  153.211    2.668    3.097   34.424   27.455 
 2874  151.592    2.578    3.085   34.429   27.467 
 2875  150.782    2.434    3.083   34.503   27.538 
 2876  149.433    2.327    3.080   34.589   27.616 
 2877  148.624    2.251    3.079   34.589   27.622 
 2878  147.815    2.240    3.078   34.629   27.655 
 2879  146.466    2.177    3.074   34.656   27.682 
 2880  145.117    2.099    3.054   34.658   27.689 
 2881  143.228    1.984    3.053   34.670   27.709 
 2882  142.149    1.891    3.053   34.732   27.765 
 2883  141.070    1.859    3.053   34.767   27.796 
 2884  139.721    1.858    3.053   34.769   27.798 
 2885  138.641    1.850    3.053   34.779   27.806 
 2886  137.562    1.844    3.053   34.783   27.810 
 2887  136.483    1.786    3.053   34.783   27.815 
 2888  134.325    1.738    3.044   34.783   27.815 
 2889  133.515    1.664    3.037   34.783   27.815 
 2890  132.166    1.625    3.033   34.771   27.815 
 2891  131.357    1.584    3.017   34.620   27.699 
 2892  130.547    1.571    3.013   34.585   27.672 
 2893  129.198    1.487    3.001   34.524   27.629 
 2894  127.580    1.423    2.985   34.387   27.525 
 2895  125.691    1.394    2.979   34.387   27.524 
 2896  124.342    1.367    2.979   34.380   27.524 
 2897  123.263    1.364    2.979   34.380   27.524 
 2898  122.453    1.338    2.977   34.380   27.525 
 2899  121.644    1.335    2.977   34.387   27.530 
 2900  120.295    1.314    2.979   34.433   27.568 
 2901  118.676    1.265    2.979   34.491   27.618 
 2902  116.788    1.242    2.982   34.552   27.669 
 2903  115.978    1.204    2.979   34.561   27.679 
 2904  114.629    1.194    2.982   34.607   27.716 
 2905  113.550    1.183    2.984   34.643   27.746 
 2906  112.741    1.118    2.986   34.748   27.835 
 2907  111.662    1.116    2.988   34.782   27.863 
 2908  110.583    1.106    2.988   34.782   27.863 
 2909  109.234    1.096    2.988   34.782   27.863 
 2910  107.885    1.086    2.988   34.782   27.863 
 2911  106.805    1.034    2.976   34.781   27.863 
 2912  105.456    0.972    2.976   34.713   27.818 
 2913  104.108    0.939    2.968   34.711   27.818 
 2914  103.028    0.939    2.964   34.711   27.818 
 2915  101.679    0.934    2.964   34.711   27.817 
 2916   99.791    0.902    2.964   34.674   27.790 
 2917   98.712    0.898    2.964   34.672   27.788 
 2918   97.633    0.894    2.941   34.460   27.618 
 2919   96.553    0.855    2.940   34.428   27.597 
 2920   95.474    0.789    2.932   34.425   27.597 
 2921   94.395    0.788    2.931   34.425   27.597 
 2922   92.237    0.784    2.931   34.425   27.595 
 2923   90.618    0.744    2.926   34.419   27.595 
 2924   90.078    0.578    2.922   34.402   27.591 
 2925   88.460    0.575    2.897   34.207   27.434 
 2926   86.841    0.565    2.863   33.841   27.140 
 2927   86.032    0.528    2.859   33.804   27.120 
 2928   84.683    0.461    2.859   33.801   27.120 
 2929   83.603    0.408    2.852   33.801   27.120 
 2930   81.985    0.401    2.851   33.804   27.120 
 2931   80.906    0.346    2.846   33.841   27.153 
 2932   79.557    0.293    2.851   33.920   27.219 
 2933   79.017    0.289    2.852   33.936   27.232 
 2934   77.938    0.279    2.851   33.937   27.234 
 2935   76.589    0.255    2.849   33.938   27.235 
 2936   74.701    0.244    2.847   33.943   27.237 
 2937   73.352    0.219    2.847   33.943   27.237 
 2938   72.542    0.211    2.849   33.943   27.237 
 2939   71.193    0.194    2.847   33.936   27.237 
 2940   69.575    0.191    2.837   33.858   27.175 
 2941   68.226    0.187    2.834   33.831   27.153 
 2942   67.686    0.163    2.818   33.649   27.007 
 2943   66.337    0.152    2.802   33.448   26.846 
 2944   64.988    0.150    2.796   33.372   26.784 
 2945   64.179    0.150    2.795   33.359   26.774 
 2946   63.100    0.150    2.792   33.319   26.742 
 2947   62.290    0.150    2.792   33.319   26.742 
 2948   61.751    0.150    2.791   33.311   26.735 
 2949   60.942    0.162    2.789   33.265   26.697 
 2950   60.402    0.168    2.788   33.245   26.681 
 2951   59.593    0.171    2.788   33.242   26.679 
 2952   58.513    0.175    2.788   33.238   26.675 
 2953   57.165    0.178    2.786   33.212   26.654 
 2954   56.625    0.193    2.786   33.196   26.641 
 2955   55.816    0.216    2.786   33.172   26.620 
 2956   55.006    0.243    2.786   33.172   26.620 
 2957   54.197    0.269    2.789   33.172   26.620 
 2958   53.657    0.276    2.790   33.172   26.620 
 2959   52.848    0.276    2.792   33.182   26.625 
 2960   52.039    0.276    2.792   33.182   26.625 
 2961   51.499    0.277    2.792   33.182   26.625 
 2962   51.229    0.277    2.792   33.182   26.625 
 2963   50.690    0.276    2.791   33.182   26.624 
 2964   49.880    0.276    2.790   33.169   26.615 
 2965   49.880    0.275    2.787   33.123   26.577 
 2966   49.071    0.275    2.784   33.087   26.548 
 2967   48.801    0.274    2.783   33.080   26.542 
 2968   48.262    0.273    2.782   33.064   26.530 
 2969   47.722    0.272    2.782   33.059   26.526 
 2970   47.452    0.266    2.780   33.046   26.515 
 2971   47.183    0.263    2.779   33.039   26.511 
 2972   47.183    0.262    2.779   33.039   26.511 
 2973   46.913    0.262    2.779   33.039   26.511 
 2974   46.913    0.255    2.779   33.039   26.511 
 2975   46.913    0.251    2.779   33.046   26.516 
 2976   46.643    0.243    2.779   33.056   26.525 
 2977   46.643    0.243    2.780   33.069   26.535 
 2978   46.373    0.243    2.781   33.082   26.546 
 2979   46.373    0.243    2.781   33.086   26.549 
 2980   46.373    0.244    2.782   33.087   26.550 
 2981   46.104    0.245    2.782   33.090   26.552 
 2982   46.104    0.245    2.782   33.091   26.553 
 2983   46.104    0.245    2.782   33.091   26.553 
 2984   46.104    0.247    2.782   33.092   26.553 
 2985   46.104    0.247    2.782   33.092   26.553 
 2986   45.834    0.245    2.782   33.092   26.553 
 2987   45.834    0.244    2.782   33.091   26.553 
 2988   45.834    0.244    2.782   33.091   26.553 
 2989   45.834    0.240    2.781   33.083   26.547 
 2990   45.564    0.240    2.780   33.071   26.537 
 2991   45.564    0.240    2.778   33.051   26.521 
 2992   45.564    0.240    2.777   33.034   26.507 
 2993   45.564    0.234    2.776   33.030   26.505 
 2994   45.564    0.230    2.776   33.026   26.501 
 2995   45.564    0.228    2.775   33.020   26.496 
 2996   45.564    0.226    2.774   33.013   26.491 
 2997   45.564    0.224    2.774   33.007   26.487 
 2998   45.564    0.222    2.773   33.007   26.487 
 2999   45.564    0.222    2.773   33.007   26.487 
 3000   45.564    0.217    2.773   33.007   26.487 
 3001   45.564    0.209    2.773   33.008   26.488 
 3002   45.564    0.194    2.772   33.021   26.500 
 3003   45.564    0.191    2.772   33.023   26.501 
 3004   45.834    0.190    2.772   33.024   26.501 
 3005   45.834    0.184    2.772   33.030   26.507 
 3006   45.834    0.174    2.772   33.038   26.514 
 3007   45.834    0.165    2.772   33.046   26.521 
 3008   45.834    0.165    2.772   33.046   26.521 
 3009   45.834    0.162    2.772   33.052   26.526 
 3010   45.834    0.161    2.773   33.060   26.532 
 3011   45.834    0.161    2.773   33.060   26.532 
 3012   45.834    0.161    2.773   33.062   26.534 
 3013   45.834    0.154    2.773   33.068   26.540 
 3014   45.834    0.154    2.773   33.070   26.540 
 3015   45.834    0.152    2.773   33.071   26.541 
 3016   45.834    0.152    2.773   33.071   26.541 
 3017   45.834    0.152    2.773   33.071   26.541 
 3018   45.834    0.152    2.773   33.071   26.541 
 3019   45.834    0.152    2.773   33.071   26.541 
 3020   45.834    0.152    2.772   33.064   26.536 
 3021   46.104    0.152    2.772   33.060   26.533 
 3022   46.104    0.154    2.771   33.050   26.525 
 3023   46.104    0.156    2.770   33.028   26.507 
 3024   46.104    0.157    2.769   33.023   26.503 
 3025   46.104    0.158    2.769   33.020   26.500 
 3026   46.104    0.158    2.769   33.013   26.495 
 3027   46.104    0.159    2.768   33.001   26.485 
 3028   45.834    0.159    2.768   32.997   26.482 
 3029   45.834    0.164    2.768   32.992   26.477 
 3030   45.834    0.169    2.768   32.987   26.473 
 3031   45.834    0.173    2.768   32.982   26.468 
 3032   45.834    0.180    2.768   32.975   26.463 
 3033   45.834    0.181    2.768   32.974   26.462 
 3034   45.834    0.182    2.768   32.973   26.461 
 3035   45.834    0.182    2.767   32.968   26.457 
 3036   45.834    0.182    2.767   32.966   26.456 
 3037   45.834    0.182    2.767   32.966   26.456 
 3038   45.834    0.182    2.767   32.966   26.456 
 3039   45.564    0.182    2.767   32.966   26.456 
 3040   45.564    0.184    2.767   32.964   26.454 
 3041   45.564    0.184    2.767   32.964   26.454 
 3042   45.294    0.184    2.767   32.960   26.450 
 3043   45.024    0.184    2.765   32.941   26.435 
 3044   44.485    0.171    2.762   32.929   26.429 
 3045   44.215    0.134    2.759   32.929   26.429 
 3046   43.676    0.108    2.758   32.929   26.429 
 3047   43.136    0.102    2.758   32.929   26.429 
 3048   42.327    0.098    2.758   32.932   26.432 
 3049   40.978    0.098    2.757   32.932   26.432 
 3050   39.899    0.098    2.757   32.932   26.432 
 3051   39.089    0.097    2.757   32.932   26.432 
 3052   38.280    0.097    2.756   32.932   26.432 
 3053   37.201    0.095    2.756   32.933   26.433 
 3054   36.122    0.090    2.756   32.934   26.434 
 3055   35.043    0.086    2.756   32.936   26.436 
 3056   34.503    0.086    2.756   32.937   26.436 
 3057   33.694    0.086    2.756   32.937   26.437 
 3058   32.884    0.086    2.757   32.937   26.437 
 3059   31.535    0.090    2.757   32.937   26.437 
 3060   30.726    0.090    2.757   32.937   26.437 
 3061   29.917    0.094    2.757   32.937   26.436 
 3062   29.377    0.112    2.758   32.933   26.432 
 3063   29.107    0.248    2.767   32.899   26.398 
 3064   28.838    0.376    2.771   32.821   26.329 
 3065   28.298    0.523    2.772   32.675   26.203 
 3066   28.028    0.558    2.772   32.674   26.201 
 3067   27.759    0.576    2.776   32.672   26.198 
 3068   27.219    0.589    2.777   32.644   26.175 
 3069   27.219    0.621    2.777   32.641   26.170 
 3070   26.949    0.700    2.777   32.558   26.099 
 3071   26.680    0.730    2.777   32.526   26.072 
 3072   26.410    0.730    2.774   32.484   26.038 
 3073   26.410    0.737    2.772   32.454   26.014 
 3074   25.870    0.753    2.772   32.431   25.994 
 3075   25.870    0.753    2.772   32.431   25.994 
 3076   25.600    0.769    2.772   32.415   25.980 
 3077   25.331    0.773    2.772   32.415   25.980 
 3078   25.061    0.790    2.772   32.415   25.980 
 3079   25.061    0.817    2.775   32.415   25.980 
 3080   24.252    0.830    2.778   32.438   25.996 
 3081   24.252    0.857    2.787   32.524   26.063 
 3082   24.252    0.897    2.798   32.578   26.102 
 3083   23.982    0.955    2.801   32.586   26.102 
 3084   23.982    0.986    2.803   32.586   26.102 
 3085   23.982    1.042    2.807   32.586   26.102 
 3086   23.982    1.064    2.809   32.578   26.094 
 3087   23.982    1.093    2.809   32.556   26.075 
 3088   23.982    1.103    2.809   32.545   26.065 
 3089   23.982    1.103    2.809   32.545   26.065 
 3090   24.252    1.107    2.808   32.526   26.050 
 3091   24.252    1.113    2.802   32.444   25.984 
 3092   24.252    1.128    2.802   32.429   25.971 
 3093   24.521    1.136    2.802   32.421   25.963 
 3094   24.521    1.142    2.802   32.414   25.958 
 3095   24.521    1.153    2.802   32.409   25.953 
 3096   24.521    1.153    2.802   32.409   25.953 
 3097   24.252    1.162    2.802   32.400   25.945 
 3098   24.252    1.167    2.802   32.395   25.941 
 3099   23.982    1.170    2.802   32.395   25.941 
 3100   23.982    1.172    2.802   32.395   25.941 
 3101   23.982    1.172    2.802   32.395   25.941 
 3102   23.712    1.174    2.810   32.488   26.015 
 3103   23.712    1.178    2.815   32.540   26.056 
 3104   23.442    1.189    2.816   32.540   26.057 
 3105   23.442    1.200    2.817   32.546   26.058 
 3106   23.442    1.219    2.819   32.547   26.059 
 3107   23.172    1.238    2.820   32.547   26.060 
 3108   22.903    1.242    2.820   32.551   26.062 
 3109   22.633    1.245    2.823   32.573   26.076 
 3110   22.633    1.259    2.826   32.573   26.076 
 3111   22.633    1.271    2.826   32.573   26.076 
 3112   22.363    1.285    2.826   32.573   26.076 
 3113   22.363    1.292    2.826   32.566   26.071 
 3114   22.093    1.305    2.826   32.552   26.059 
 3115   22.093    1.315    2.824   32.517   26.030 
 3116   21.824    1.315    2.824   32.517   26.030 
 3117   21.824    1.316    2.824   32.517   26.030 
 3118   21.824    1.319    2.824   32.517   26.030 
 3119   21.554    1.320    2.831   32.595   26.092 
 3120   21.284    1.342    2.846   32.636   26.116 
 3121   21.014    1.456    2.847   32.642   26.116 
 3122   20.744    1.499    2.849   32.642   26.116 
 3123   20.475    1.521    2.850   32.642   26.116 
 3124   20.205    1.573    2.855   32.636   26.108 
 3125   19.396    1.610    2.857   32.633   26.103 
 3126   18.316    1.654    2.859   32.610   26.082 
 3127   17.777    1.689    2.861   32.593   26.066 
 3128   17.237    1.764    2.865   32.566   26.039 
 3129   16.698    1.829    2.866   32.546   26.019 
 3130   16.158    1.885    2.873   32.543   26.012 
 3131   15.619    1.959    2.879   32.527   25.994 
 3132   14.540    2.062    2.886   32.516   25.977 
 3133   13.461    2.159    2.889   32.465   25.929 
 3134   13.191    2.224    2.891   32.463   25.923 
 3135   12.381    2.314    2.902   32.423   25.884 
 3136   11.842    2.431    2.905   32.386   25.845 
 3137   11.302    2.534    2.912   32.377   25.830 
 3138   10.763    2.609    2.919   32.374   25.822 
 3139   10.223    2.645    2.921   32.371   25.816 
 3140    9.684    2.686    2.923   32.371   25.813 
 3141    9.414    2.720    2.925   32.371   25.810 
 3142    8.605    2.744    2.925   32.356   25.796 
 3143    8.335    2.772    2.934   32.342   25.783 
 3144    7.795    2.980    2.950   32.322   25.750 
 3145    6.716    3.158    2.959   32.322   25.738 
 3146    5.637    3.267    2.962   32.339   25.735 
 3147    4.828    3.310    2.971   32.339   25.734 
 3148    4.288    3.409    2.982   32.339   25.734 
 3149    4.019    3.483    2.990   32.358   25.731 
 3150    3.749    3.512    2.992   32.358   25.729 
 3151    3.479    3.540    2.995   32.358   25.726 
 3152    3.209    3.569    2.997   32.358   25.726 
 3153    2.670    3.675    2.999   32.297   25.667 
 3154    2.130    3.675    3.000   32.297   25.667 
 3155    1.860    3.675    3.000   32.297   25.667 
 3156    1.591    3.675    3.000   32.297   25.667 
 3157    1.591    3.656    3.000   32.316   25.685 
 3158    1.321    3.641    3.000   32.322   25.690 
 3159    1.321    3.637    2.999   32.331   25.699 
 3160    1.321    3.631    3.000   32.339   25.705 
 3161    1.321    3.619    3.000   32.351   25.716 
 3162    1.051    3.619    3.000   32.351   25.716 
 3163    1.051    3.619    3.000   32.351   25.716 
 3164    1.051    3.611    3.001   32.371   25.732 
 3165    1.051    3.626    2.999   32.329   25.697 
 3166    0.781    3.624    3.001   32.362   25.724 
