* Sea-Bird SBE19plus  Data File:
* FileName = C:\Users\Quadra.Lab\Desktop\ctd files\2022-05-17\SBE19plus_01907674_2022_05_17_0002.hex
* Software version 2.8.0.119
* Temperature SN = 7674
* Conductivity SN = 7674
* System UpLoad Time = May 17 2022 13:44:17
* <ApplicationData>
* <Seaterm232>
* <SoftwareVersion>2.8.0.119</SoftwareVersion>
* <BuildDate>07-Nov-2018</BuildDate>
* </Seaterm232>
* </ApplicationData>
* <InstrumentState>
* <HardwareData DeviceType='SBE19plus' SerialNumber='01907674'>
*
*    <Manufacturer>Sea-Bird Electronics, Inc.</Manufacturer>
*
*    <FirmwareVersion>2.5.2</FirmwareVersion>
*
*    <FirmwareDate>12 Mar 2013 11:50</FirmwareDate>
*
*    <CommandSetVersion>1.3</CommandSetVersion>
*
*    <PCBAssembly PCBSerialNum='101177' AssemblyNum='41054h'/>
*
*    <PCBAssembly PCBSerialNum='101239' AssemblyNum='41580c'/>
*
*    <PCBAssembly PCBSerialNum='101243' AssemblyNum='41606'/>
*
*    <PCBAssembly PCBSerialNum='101241' AssemblyNum='41932B'/>
*
*    <MfgDate>12222016</MfgDate>
*
*    <InternalSensors>
*
*       <Sensor id='Main Temperature'>
*
*          <type>temperature0</type>
*
*          <SerialNumber>01907674</SerialNumber>
*
*       </Sensor>
*
*       <Sensor id='Main Conductivity'>
*
*          <type>conductivity-0</type>
*
*          <SerialNumber>01907674</SerialNumber>
*
*       </Sensor>
*
*       <Sensor id='Main Pressure'>
*
*          <type>strain-0</type>
*
*          <SerialNumber>4415752</SerialNumber>
*
*       </Sensor>
*
*    </InternalSensors>
*
*    <ExternalSensors>
*
*       <Sensor id='volt 0'>
*
*          <type>not assigned</type>
*
*          <SerialNumber>not assigned</SerialNumber>
*
*       </Sensor>
*
*       <Sensor id='volt 1'>
*
*          <type>not assigned</type>
*
*          <SerialNumber>not assigned</SerialNumber>
*
*       </Sensor>
*
*       <Sensor id='volt 2'>
*
*          <type>not assigned</type>
*
*          <SerialNumber>not assigned</SerialNumber>
*
*       </Sensor>
*
*       <Sensor id='volt 3'>
*
*          <type>not assigned</type>
*
*          <SerialNumber>not assigned</SerialNumber>
*
*       </Sensor>
*
*       <Sensor id='volt 4'>
*
*          <type>not assigned</type>
*
*          <SerialNumber>not assigned</SerialNumber>
*
*       </Sensor>
*
*       <Sensor id='volt 5'>
*
*          <type>not assigned</type>
*
*          <SerialNumber>not assigned</SerialNumber>
*
*       </Sensor>
*
*       <Sensor id='serial'>
*
*          <type>WetLabs TransX</type>
*
*          <SerialNumber>CSTR-1737PR</SerialNumber>
*
*       </Sensor>
*
*    </ExternalSensors>
*
* </HardwareData>
* <StatusData DeviceType='SBE19plus' SerialNumber='01907674'>
*
*    <DateTime>2022-05-17T13:43:18</DateTime>
*
*    <LoggingState>not logging</LoggingState>
*
*    <EventSummary numEvents='0'/>
*
*    <Power>
*
*       <vMain>12.8</vMain>
*
*       <vLith>8.1</vLith>
*
*       <iMain>60.8</iMain>
*
*       <iPump>67.2</iPump>
*
*       <iExt01> 8.1</iExt01>
*
*       <iExt2345>44.9</iExt2345>
*
*    </Power>
*
*    <MemorySummary>
*
*       <Bytes>85997</Bytes>
*
*       <Samples>3739</Samples>
*
*       <SamplesFree>2857049</SamplesFree>
*
*       <SampleLength>23</SampleLength>
*
*       <Profiles>2</Profiles>
*
*    </MemorySummary>
*
* </StatusData>
* <ConfigurationData DeviceType='SBE19plus' SerialNumber='01907674'>
*
*    <ProfileMode>
*
*       <ScansToAverage>1</ScansToAverage>
*
*       <MinimumCondFreq>3000</MinimumCondFreq>
*
*       <PumpDelay>60</PumpDelay>
*
*       <AutoRun>no</AutoRun>
*
*       <IgnoreSwitch>no</IgnoreSwitch>
*
*    </ProfileMode>
*
*    <Battery>
*
*       <Type>alkaline</Type>
*
*       <CutOff>7.5</CutOff>
*
*    </Battery>
*
*    <DataChannels>
*
*       <ExtVolt0>yes</ExtVolt0>
*
*       <ExtVolt1>yes</ExtVolt1>
*
*       <ExtVolt2>yes</ExtVolt2>
*
*       <ExtVolt3>yes</ExtVolt3>
*
*       <ExtVolt4>yes</ExtVolt4>
*
*       <ExtVolt5>yes</ExtVolt5>
*
*       <SBE38>no</SBE38>
*
*       <WETLABS>no</WETLABS>
*
*       <OPTODE>no</OPTODE>
*
*       <SBE63>no</SBE63>
*
*       <GTD>no</GTD>
*
*    </DataChannels>
*
*    <EchoCharacters>yes</EchoCharacters>
*
*    <OutputExecutedTag>yes</OutputExecutedTag>
*
*    <OutputFormat>raw HEX</OutputFormat>
*
* </ConfigurationData>
* <CalibrationCoefficients DeviceType='SBE19plus' SerialNumber='01907674'>
*
*    <Calibration format='TEMP1' id='Main Temperature'>
*
*       <SerialNum>01907674</SerialNum>
*
*       <CalDate>09-Jan-22</CalDate>
*
*       <TA0>1.254230e-03</TA0>
*
*       <TA1>2.734139e-04</TA1>
*
*       <TA2>-8.458291e-07</TA2>
*
*       <TA3>1.706533e-07</TA3>
*
*       <TOFFSET>0.000000e+00</TOFFSET>
*
*    </Calibration>
*
*    <Calibration format='WBCOND0' id='Main Conductivity'>
*
*       <SerialNum>01907674</SerialNum>
*
*       <CalDate>09-Jan-22</CalDate>
*
*       <G>-9.745918e-01</G>
*
*       <H>1.326747e-01</H>
*
*       <I>-1.616794e-04</I>
*
*       <J>3.117327e-05</J>
*
*       <CPCOR>-9.570000e-08</CPCOR>
*
*       <CTCOR>3.250000e-06</CTCOR>
*
*       <CSLOPE>1.000000e+00</CSLOPE>
*
*    </Calibration>
*
*    <Calibration format='STRAIN0' id='Main Pressure'>
*
*       <SerialNum>4415752</SerialNum>
*
*       <CalDate>05-Jan-22</CalDate>
*
*       <PA0>1.483748e+00</PA0>
*
*       <PA1>3.155747e-03</PA1>
*
*       <PA2>1.018618e-10</PA2>
*
*       <PTCA0>5.229693e+05</PTCA0>
*
*       <PTCA1>9.434330e+00</PTCA1>
*
*       <PTCA2>5.546896e-01</PTCA2>
*
*       <PTCB0>2.492863e+01</PTCB0>
*
*       <PTCB1>3.250000e-04</PTCB1>
*
*       <PTCB2>0.000000e+00</PTCB2>
*
*       <PTEMPA0>1.682415e+02</PTEMPA0>
*
*       <PTEMPA1>-4.869196e+01</PTEMPA1>
*
*       <PTEMPA2>-2.565556e+00</PTEMPA2>
*
*       <POFFSET>0.000000e+00</POFFSET>
*
*       <PRANGE>8.700000e+02</PRANGE>
*
*    </Calibration>
*
*    <Calibration format='VOLT0' id='Volt 0'>
*
*       <OFFSET>-4.646421e-02</OFFSET>
*
*       <SLOPE>1.251479e+00</SLOPE>
*
*    </Calibration>
*
*    <Calibration format='VOLT0' id='Volt 1'>
*
*       <OFFSET>-4.659158e-02</OFFSET>
*
*       <SLOPE>1.251417e+00</SLOPE>
*
*    </Calibration>
*
*    <Calibration format='VOLT0' id='Volt 2'>
*
*       <OFFSET>-4.720316e-02</OFFSET>
*
*       <SLOPE>1.251404e+00</SLOPE>
*
*    </Calibration>
*
*    <Calibration format='VOLT0' id='Volt 3'>
*
*       <OFFSET>-4.635895e-02</OFFSET>
*
*       <SLOPE>1.250783e+00</SLOPE>
*
*    </Calibration>
*
*    <Calibration format='VOLT0' id='Volt 4'>
*
*       <OFFSET>-4.578105e-02</OFFSET>
*
*       <SLOPE>1.252584e+00</SLOPE>
*
*    </Calibration>
*
*    <Calibration format='VOLT0' id='Volt 5'>
*
*       <OFFSET>-4.584527e-02</OFFSET>
*
*       <SLOPE>1.251505e+00</SLOPE>
*
*    </Calibration>
*
*    <Calibration format='FREQ0' id='external frequency channel'>
*
*       <EXTFREQSF>9.999908e-01</EXTFREQSF>
*
*    </Calibration>
*
* </CalibrationCoefficients>
* <EventCounters DeviceType='SBE19plus' SerialNumber='01907674'>
*
*    <EventSummary numEvents='0'/>
*
* </EventCounters></InstrumentState>
* <Headers>
*
* cast   2 17 May 2022 11:21:24 samples 2606 to 3739, avg = 1, stop = mag switch
*
* </Headers><UserHeaderInsert>
* <![CDATA[
** Workarea: QUADRA
* ]]>
* </UserHeaderInsert>
# nquan = 13
# nvalues = 894                                   
# units = specified
# name 0 = scan: Scan Count
# name 1 = timeS: Time, Elapsed [seconds]
# name 2 = prdM: Pressure, Strain Gauge [db]
# name 3 = tv290C: Temperature [ITS-90, deg C]
# name 4 = c0mS/cm: Conductivity [mS/cm]
# name 5 = sbeox0V: Oxygen raw, SBE 43 [V]
# name 6 = flSP: Fluorescence, Seapoint
# name 7 = seaTurbMtr: Turbidity, Seapoint [FTU]
# name 8 = par: PAR/Irradiance, Biospherical/Licor
# name 9 = dz/dtM: Descent Rate [m/s]
# name 10 = CStarTr0: Beam Transmission, WET Labs C-Star [%]
# name 11 = CStarAt0: Beam Attenuation, WET Labs C-Star [1/m]
# name 12 = flag:  0.000e+00
# span 0 =        241,       1134                 
# span 1 =     60.000,    283.250                 
# span 2 =     -0.245,     63.515                 
# span 3 =     8.8676,    10.5754                 
# span 4 =   3.339002,  32.084300                 
# span 5 =     1.6260,     2.7420                 
# span 6 = 0.0000e+00, 7.6425e+00                 
# span 7 =      0.000,      1.457                 
# span 8 = 1.0000e-12, 2.8984e+03                 
# span 9 =     -1.114,      1.167                 
# span 10 =     0.4719,    96.4537                
# span 11 =     0.1444,    21.4246                
# span 12 = 0.0000e+00, 0.0000e+00                
# interval = seconds: 0.25
# start_time = May 17 2022 11:21:24 [Instrument's time stamp, header]
# bad_flag = -9.990e-29
# <Sensors count="9" >
#   <sensor Channel="1" >
#     <!-- Count, Temperature -->
#     <TemperatureSensor SensorID="58" >
#       <SerialNumber>7674</SerialNumber>
#       <CalibrationDate>27-Jan-21</CalibrationDate>
#       <A0>1.26457554e-003</A0>
#       <A1>2.69421196e-004</A1>
#       <A2>-3.33822125e-007</A2>
#       <A3>1.48842057e-007</A3>
#       <Slope>1.00000000</Slope>
#       <Offset>0.0000</Offset>
#     </TemperatureSensor>
#   </sensor>
#   <sensor Channel="2" >
#     <!-- Frequency 0, Conductivity -->
#     <ConductivitySensor SensorID="3" >
#       <SerialNumber>7674</SerialNumber>
#       <CalibrationDate>27-Jan-21</CalibrationDate>
#       <UseG_J>1</UseG_J>
#       <!-- Cell const and series R are applicable only for wide range sensors. -->
#       <SeriesR>0.0000</SeriesR>
#       <CellConst>2000.0000</CellConst>
#       <ConductivityType>0</ConductivityType>
#       <Coefficients equation="0" >
#         <A>0.00000000e+000</A>
#         <B>0.00000000e+000</B>
#         <C>0.00000000e+000</C>
#         <D>0.00000000e+000</D>
#         <M>0.0</M>
#         <CPcor>-9.57000000e-008</CPcor>
#       </Coefficients>
#       <Coefficients equation="1" >
#         <G>-9.74661029e-001</G>
#         <H>1.32746460e-001</H>
#         <I>-1.89592430e-004</I>
#         <J>3.29733661e-005</J>
#         <CPcor>-9.57000000e-008</CPcor>
#         <CTcor>3.2500e-006</CTcor>
#         <!-- WBOTC not applicable unless ConductivityType = 1. -->
#         <WBOTC>0.00000000e+000</WBOTC>
#       </Coefficients>
#       <Slope>1.00000000</Slope>
#       <Offset>0.00000</Offset>
#     </ConductivitySensor>
#   </sensor>
#   <sensor Channel="3" >
#     <!-- Count, Pressure, Strain Gauge -->
#     <PressureSensor SensorID="46" >
#       <SerialNumber>7674</SerialNumber>
#       <CalibrationDate>11-Dec-20</CalibrationDate>
#       <PA0>1.53386725e+000</PA0>
#       <PA1>3.15545305e-003</PA1>
#       <PA2>9.32842698e-011</PA2>
#       <PTEMPA0>1.68241545e+002</PTEMPA0>
#       <PTEMPA1>-4.86919576e+001</PTEMPA1>
#       <PTEMPA2>-2.56555648e+000</PTEMPA2>
#       <PTCA0>5.23015704e+005</PTCA0>
#       <PTCA1>1.10567122e+001</PTCA1>
#       <PTCA2>5.51399014e-001</PTCA2>
#       <PTCB0>2.49286250e+001</PTCB0>
#       <PTCB1>3.25000000e-004</PTCB1>
#       <PTCB2>0.00000000e+000</PTCB2>
#       <Offset>0.000000</Offset>
#     </PressureSensor>
#   </sensor>
#   <sensor Channel="4" >
#     <!-- A/D voltage 0, Oxygen, SBE 43 -->
#     <OxygenSensor SensorID="38" >
#       <SerialNumber>3292</SerialNumber>
#       <CalibrationDate>21-Jan-21</CalibrationDate>
#       <Use2007Equation>1</Use2007Equation>
#       <CalibrationCoefficients equation="0" >
#         <!-- Coefficients for Owens-Millard equation. -->
#         <Boc>0.0000</Boc>
#         <Soc>0.0000e+000</Soc>
#         <offset>0.0000</offset>
#         <Pcor>0.00e+000</Pcor>
#         <Tcor>0.0000</Tcor>
#         <Tau>0.0</Tau>
#       </CalibrationCoefficients>
#       <CalibrationCoefficients equation="1" >
#         <!-- Coefficients for Sea-Bird equation - SBE calibration in 2007 and later. -->
#         <Soc>5.1911e-001</Soc>
#         <offset>-0.5272</offset>
#         <A>-4.8456e-003</A>
#         <B> 2.3997e-004</B>
#         <C>-3.5302e-006</C>
#         <D0> 2.5826e+000</D0>
#         <D1> 1.92634e-004</D1>
#         <D2>-4.64803e-002</D2>
#         <E> 3.6000e-002</E>
#         <Tau20> 1.2600</Tau20>
#         <H1>-3.3000e-002</H1>
#         <H2> 5.0000e+003</H2>
#         <H3> 1.4500e+003</H3>
#       </CalibrationCoefficients>
#     </OxygenSensor>
#   </sensor>
#   <sensor Channel="5" >
#     <!-- A/D voltage 1, PAR/Irradiance, Biospherical/Licor -->
#     <PAR_BiosphericalLicorChelseaSensor SensorID="42" >
#       <SerialNumber>70772</SerialNumber>
#       <CalibrationDate>16-Feb-2021</CalibrationDate>
#       <M>1.00000000</M>
#       <B>0.00000000</B>
#       <CalibrationConstant>10101000000.00000000</CalibrationConstant>
#       <Multiplier>1.00000000</Multiplier>
#       <Offset>-0.10139936</Offset>
#     </PAR_BiosphericalLicorChelseaSensor>
#   </sensor>
#   <sensor Channel="6" >
#     <!-- A/D voltage 2, Turbidity Meter, Seapoint -->
#     <OBS_SeapointTurbiditySensor SensorID="33" >
#       <SerialNumber>15131</SerialNumber>
#       <CalibrationDate>20-Jan-2021</CalibrationDate>
#       <!-- The following is an array index, not the actual gain setting. -->
#       <GainSetting>2</GainSetting>
#       <ScaleFactor>1.000</ScaleFactor>
#     </OBS_SeapointTurbiditySensor>
#   </sensor>
#   <sensor Channel="7" >
#     <!-- A/D voltage 3, Fluorometer, Seapoint -->
#     <FluoroSeapointSensor SensorID="11" >
#       <SerialNumber>3708</SerialNumber>
#       <CalibrationDate>20-Jan-2021</CalibrationDate>
#       <!-- The following is an array index, not the actual gain setting. -->
#       <GainSetting>3</GainSetting>
#       <Offset>0.000</Offset>
#     </FluoroSeapointSensor>
#   </sensor>
#   <sensor Channel="8" >
#     <!-- A/D voltage 4, Transmissometer, WET Labs C-Star -->
#     <WET_LabsCStar SensorID="71" >
#       <SerialNumber>CSTR-1737PR</SerialNumber>
#       <CalibrationDate>11-Feb-2021</CalibrationDate>
#       <M>21.3570</M>
#       <B>-0.0430</B>
#       <PathLength>0.250</PathLength>
#     </WET_LabsCStar>
#   </sensor>
#   <sensor Channel="9" >
#     <!-- A/D voltage 5, Free -->
#   </sensor>
# </Sensors>
# datcnv_date = May 18 2022 09:00:11, 7.26.1.8 [datcnv_vars = 12]
# datcnv_in = C:\Users\Hakai\AppData\Local\Temp\sbe19plus_01907674_2022_05_17_0002.hex C:\Users\Hakai\Git\hakai-data-tools\ctd-tools\seabird-proc\xmlcon\19-7674-20210127.xmlcon
# datcnv_skipover = 240
# datcnv_ox_hysteresis_correction = no
# file_type = ascii
*END*
        241     60.000      3.256    10.5074  31.615660     2.0346 7.3930e-01      0.319 3.2607e+02 -5.390e-14    91.1516     0.3706  0.000e+00
        242     60.250      3.259    10.5086  31.690643     2.0313 8.7892e-01      0.284 3.2516e+02      0.001    90.0419     0.4196  0.000e+00
        243     60.500      3.239    10.5155  31.709195     2.0273 8.7205e-01      0.267 3.2901e+02     -0.004    90.0436     0.4195  0.000e+00
        244     60.750      3.226    10.5229  31.701691     2.0272 1.2772e+00      0.257 3.3255e+02     -0.011    90.0419     0.4196  0.000e+00
        245     61.000      3.217    10.5264  31.693316     2.0368 1.0025e+00      0.235 3.3384e+02     -0.019    90.0403     0.4197  0.000e+00
        246     61.250      3.222    10.5273  31.696166     2.0615 8.4916e-01      0.256 3.3150e+02     -0.022    91.3797     0.3606  0.000e+00
        247     61.500      3.223    10.5275  31.701109     2.1003 1.5335e+00      0.246 3.2832e+02     -0.023    91.3846     0.3604  0.000e+00
        248     61.750      3.236    10.5280  31.709543     2.1511 8.5374e-01      0.248 3.2953e+02     -0.018    91.3878     0.3602  0.000e+00
        249     62.000      3.249    10.5293  31.709194     2.2039 7.2557e-01      0.244 3.3197e+02     -0.009    90.8615     0.3833  0.000e+00
        250     62.250      3.255    10.5303  31.710531     2.2578 7.5074e-01      0.271 3.3273e+02      0.003    90.8583     0.3835  0.000e+00
        251     62.500      3.263    10.5309  31.711520     2.3088 1.1353e+00      0.246 3.2953e+02      0.017    90.8550     0.3836  0.000e+00
        252     62.750      3.265    10.5314  31.712102     2.3559 8.0110e-01      0.265 3.2647e+02      0.026    91.4335     0.3582  0.000e+00
        253     63.000      3.265    10.5317  31.710182     2.4008 6.5690e-01      0.273 3.2556e+02      0.028    91.4269     0.3585  0.000e+00
        254     63.250      3.265    10.5318  31.708554     2.4397 7.0497e-01      0.275 3.2918e+02      0.025    91.4188     0.3589  0.000e+00
        255     63.500      3.261    10.5315  31.707216     2.4738 6.5919e-01      0.242 3.3226e+02      0.018    91.4237     0.3587  0.000e+00
        256     63.750      3.250    10.5312  31.705122     2.5050 7.3243e-01      0.248 3.3537e+02      0.007    91.1027     0.3727  0.000e+00
        257     64.000      3.238    10.5302  31.701865     2.5329 8.4001e-01      0.252 3.3573e+02     -0.004    91.1027     0.3727  0.000e+00
        258     64.250      3.232    10.5297  31.700702     2.5582 9.3385e-01      0.229 3.3655e+02     -0.014    91.0978     0.3729  0.000e+00
        259     64.500      3.230    10.5293  31.697561     2.5798 8.4916e-01      0.223 3.3232e+02     -0.020    91.3373     0.3624  0.000e+00
        260     64.750      3.243    10.5289  31.698724     2.5981 1.5633e+00      0.238 3.2659e+02     -0.019    91.3504     0.3619  0.000e+00
        261     65.000      3.256    10.5287  31.704250     2.6146 9.2470e-01      0.231 3.2745e+02     -0.012    91.3357     0.3625  0.000e+00
        262     65.250      3.267    10.5291  31.705936     2.6301 7.2557e-01      0.246 3.3320e+02     -0.002    91.3275     0.3629  0.000e+00
        263     65.500      3.270    10.5295  31.705995     2.6426 9.5216e-01      0.248 3.3667e+02      0.009    91.2216     0.3675  0.000e+00
        264     65.750      3.263    10.5299  31.702447     2.6537 7.9881e-01      0.265 3.3508e+02      0.016    91.2330     0.3670  0.000e+00
        265     66.000      3.244    10.5299  31.697736     2.6654 8.4459e-01      0.261 3.3046e+02      0.015    91.2249     0.3674  0.000e+00
        266     66.250      3.231    10.5290  31.695758     2.6727 8.1941e-01      0.256 3.3069e+02      0.006    91.6893     0.3471  0.000e+00
        267     66.500      3.229    10.5284  31.695758     2.6795 8.1025e-01      0.242 3.3081e+02     -0.004    91.6991     0.3466  0.000e+00
        268     66.750      3.234    10.5282  31.699713     2.6858 7.6448e-01      0.242 3.3081e+02     -0.014    91.6925     0.3469  0.000e+00
        269     67.000      3.247    10.5284  31.699713     2.6913 7.3243e-01      0.235 3.3285e+02     -0.016    90.7067     0.3902  0.000e+00
        270     67.250      3.253    10.5287  31.703261     2.6960 7.3472e-01      0.259 3.3279e+02     -0.013    90.7067     0.3902  0.000e+00
        271     67.500      3.255    10.5288  31.704831     2.6998 9.4072e-01      0.313 3.2982e+02     -0.005    90.7181     0.3897  0.000e+00
        272     67.750      3.251    10.5293  31.705820     2.7031 1.2383e+00      0.269 3.3011e+02      0.003    90.7084     0.3901  0.000e+00
        273     68.000      3.235    10.5296  31.709950     2.7060 8.5374e-01      0.254 3.3110e+02      0.006    91.0636     0.3744  0.000e+00
        274     68.250      3.228    10.5304  31.719664     2.7080 1.0369e+00      0.269 3.3104e+02      0.003    91.0620     0.3745  0.000e+00
        275     68.500      3.231    10.5317  31.742297     2.7113 8.0339e-01      0.240 3.2947e+02     -0.002    91.0636     0.3744  0.000e+00
        276     68.750      3.236    10.5344  31.795441     2.7139 7.3014e-01      0.238 3.2699e+02     -0.007    91.2884     0.3646  0.000e+00
        277     69.000      3.245    10.5403  31.811862     2.7164 7.2557e-01      0.263 3.2878e+02     -0.009    91.2819     0.3649  0.000e+00
        278     69.250      3.246    10.5453  31.804931     2.7185 1.3916e+00      0.282 3.2918e+02     -0.006    91.2819     0.3649  0.000e+00
        279     69.500      3.238    10.5480  31.818209     2.7208 7.8508e-01      0.275 3.3349e+02     -0.004    91.5280     0.3541  0.000e+00
        280     69.750      3.225    10.5495  31.790315     2.7233 7.5532e-01      0.242 3.3614e+02     -0.003    91.5394     0.3536  0.000e+00
        281     70.000      3.211    10.5486  31.761616     2.7242 7.5074e-01      0.233 3.3349e+02     -0.006    91.5540     0.3530  0.000e+00
        282     70.250      3.213    10.5455  31.767379     2.7249 1.1536e+00      0.252 3.3232e+02     -0.010    91.5345     0.3538  0.000e+00
        283     70.500      3.226    10.5438  31.817220     2.7269 1.0277e+00      0.250 3.2785e+02     -0.012    91.6274     0.3498  0.000e+00
        284     70.750      3.252    10.5472  31.940613     2.7285 6.9123e-01      0.256 3.2419e+02     -0.006    91.6176     0.3502  0.000e+00
        285     71.000      3.269    10.5574  31.962489     2.7295 8.0110e-01      0.229 3.2385e+02      0.005    91.6160     0.3503  0.000e+00
        286     71.250      3.276    10.5662  31.956537     2.7298 9.4301e-01      0.269 3.2912e+02      0.019    89.8382     0.4286  0.000e+00
        287     71.500      3.259    10.5709  31.950527     2.7314 8.5832e-01      0.250 3.3174e+02      0.026    89.8366     0.4287  0.000e+00
        288     71.750      3.231    10.5720  31.837604     2.7321 7.9652e-01      0.238 3.2878e+02      0.022    89.8399     0.4286  0.000e+00
        289     72.000      3.209    10.5644  31.755969     2.7330 7.7821e-01      0.267 3.2613e+02      0.009    89.8252     0.4292  0.000e+00
        290     72.250      3.205    10.5539  31.768949     2.7338 7.0039e-01      0.256 3.2757e+02     -0.009    91.1662     0.3699  0.000e+00
        291     72.500      3.219    10.5482  31.781990     2.7346 8.1025e-01      0.292 3.2780e+02     -0.022    91.1711     0.3697  0.000e+00
        292     72.750      3.245    10.5474  31.911569     2.7344 8.9036e-01      0.456 3.2907e+02     -0.025    91.1516     0.3706  0.000e+00
        293     73.000      3.268    10.5539  31.973225     2.7356 7.8279e-01      0.292 3.2878e+02     -0.014    91.5247     0.3542  0.000e+00
        294     73.250      3.281    10.5645  31.966864     2.7365 9.8878e-01      0.284 3.2573e+02      0.006    91.5182     0.3545  0.000e+00
        295     73.500      3.277    10.5709  31.964646     2.7367 7.2557e-01      0.271 3.2425e+02      0.025    91.5263     0.3542  0.000e+00
        296     73.750      3.262    10.5742  31.960912     2.7370 8.2170e-01      0.341 3.2820e+02      0.035    90.3434     0.4062  0.000e+00
        297     74.000      3.249    10.5754  31.934719     2.7369 9.4072e-01      0.246 3.2895e+02      0.032    90.3287     0.4069  0.000e+00
        298     74.250      3.247    10.5743  31.925912     2.7382 9.7047e-01      0.586 3.2895e+02      0.020    90.3483     0.4060  0.000e+00
        299     74.500      3.260    10.5726  31.939385     2.7385 7.3243e-01      0.889 3.2780e+02      0.008    90.3303     0.4068  0.000e+00
        300     74.750      3.273    10.5730  31.948544     2.7369 1.1650e+00      0.372 3.2487e+02     -0.001    91.0636     0.3744  0.000e+00
        301     75.000      3.280    10.5740  31.948135     2.7365 8.0797e-01      0.273 3.2482e+02     -0.002    91.0734     0.3740  0.000e+00
        302     75.250      3.280    10.5747  31.947785     2.7370 8.6519e-01      0.326 3.2625e+02      0.003    91.0750     0.3739  0.000e+00
        303     75.500      3.262    10.5747  31.935010     2.7376 8.0110e-01      0.299 3.3052e+02      0.006    90.6464     0.3928  0.000e+00
        304     75.750      3.243    10.5739  31.895883     2.7379 7.8508e-01      0.288 3.3244e+02      0.004    90.6302     0.3935  0.000e+00
        305     76.000      3.234    10.5706  31.871110     2.7388 7.8965e-01      0.273 3.2878e+02     -0.004    90.6302     0.3935  0.000e+00
        306     76.250      3.229    10.5669  31.882242     2.7391 8.1025e-01      0.252 3.2322e+02     -0.015    91.2542     0.3661  0.000e+00
        307     76.500      3.249    10.5655  31.884399     2.7401 1.0758e+00      0.271 3.2130e+02     -0.020    91.2510     0.3662  0.000e+00
        308     76.750      3.273    10.5649  31.886964     2.7401 1.6686e+00      0.242 3.2351e+02     -0.015    91.2461     0.3664  0.000e+00
        309     77.000      3.275    10.5647  31.868546     2.7406 7.6677e-01      0.246 3.2470e+02     -0.006    91.2510     0.3662  0.000e+00
        310     77.250      3.269    10.5633  31.847335     2.7411 7.5532e-01      0.275 3.2362e+02      0.004    90.7410     0.3886  0.000e+00
        311     77.500      3.260    10.5606  31.835858     2.7407 7.4388e-01      0.263 3.2299e+02      0.013    90.7442     0.3885  0.000e+00
        312     77.750      3.251    10.5580  31.833237     2.7407 8.4001e-01      0.267 3.1681e+02      0.014    90.7426     0.3886  0.000e+00
        313     78.000      3.257    10.5562  31.832480     2.7409 7.5990e-01      0.328 3.1140e+02      0.012    92.0021     0.3334  0.000e+00
        314     78.250      3.268    10.5555  31.827587     2.7405 7.8508e-01      0.357 3.1454e+02      0.008    92.0087     0.3332  0.000e+00
        315     78.500      3.280    10.5547  31.816636     2.7404 1.0506e+00      0.608 3.1393e+02      0.004    92.0070     0.3332  0.000e+00
        316     78.750      3.286    10.5531  31.807318     2.7397 1.1238e+00      0.299 3.1548e+02      0.004    91.1385     0.3712  0.000e+00
        317     79.000      3.273    10.5516  31.775877     2.7398 2.4880e+00      0.412 3.1642e+02      0.007    91.1483     0.3707  0.000e+00
        318     79.250      3.256    10.5485  31.747823     2.7390 1.0369e+00      0.277 3.1770e+02      0.005    91.1353     0.3713  0.000e+00
        319     79.500      3.236    10.5442  31.738746     2.7388 9.5216e-01      0.299 3.1787e+02     -0.002    91.1451     0.3709  0.000e+00
        320     79.750      3.225    10.5406  31.728389     2.7379 8.3085e-01      0.338 3.1476e+02     -0.013    91.7154     0.3459  0.000e+00
        321     80.000      3.228    10.5377  31.723968     2.7362 7.4617e-01      0.284 3.1514e+02     -0.024    91.7121     0.3461  0.000e+00
        322     80.250      3.240    10.5355  31.716290     2.7369 1.1376e+00      0.309 3.1798e+02     -0.028    91.7056     0.3463  0.000e+00
        323     80.500      3.259    10.5336  31.705645     2.7365 8.6519e-01      0.437 3.2028e+02     -0.023    90.8420     0.3842  0.000e+00
        324     80.750      3.268    10.5313  31.697910     2.7360 9.7963e-01      0.273 3.1692e+02     -0.010    90.8306     0.3847  0.000e+00
        325     81.000      3.274    10.5289  31.688489     2.7357 1.1902e+00      0.259 3.1465e+02      0.007    90.8257     0.3849  0.000e+00
        326     81.250      3.272    10.5267  31.683547     2.7365 8.2170e-01      0.286 3.1648e+02      0.020    90.8159     0.3853  0.000e+00
        327     81.500      3.266    10.5252  31.684710     2.7356 1.1513e+00      0.265 3.1559e+02      0.025    91.8359     0.3407  0.000e+00
        328     81.750      3.252    10.5246  31.683954     2.7356 1.4122e+00      0.271 3.1465e+02      0.020    91.8294     0.3410  0.000e+00
        329     82.000      3.246    10.5242  31.681163     2.7352 9.9336e-01      0.309 3.1404e+02      0.008    91.8245     0.3412  0.000e+00
        330     82.250      3.246    10.5235  31.681570     2.7343 1.2909e+00      0.280 3.1720e+02     -0.004    90.8338     0.3846  0.000e+00
        331     82.500      3.252    10.5232  31.681977     2.7334 9.0639e-01      0.267 3.2311e+02     -0.011    90.8387     0.3843  0.000e+00
        332     82.750      3.261    10.5231  31.682093     2.7327 7.1412e-01      0.242 3.2231e+02     -0.011    90.8469     0.3840  0.000e+00
        333     83.000      3.262    10.5230  31.682966     2.7323 7.7592e-01      0.261 3.2056e+02     -0.008    90.9072     0.3813  0.000e+00
        334     83.250      3.258    10.5230  31.684129     2.7328 7.3472e-01      0.261 3.2169e+02     -0.003    90.8990     0.3817  0.000e+00
        335     83.500      3.263    10.5233  31.684943     2.7321 7.0268e-01      0.322 3.2487e+02      0.004    90.8974     0.3818  0.000e+00
        336     83.750      3.261    10.5238  31.684361     2.7321 7.5074e-01      0.267 3.2362e+02      0.008    90.8876     0.3822  0.000e+00
        337     84.000      3.268    10.5239  31.683373     2.7324 8.1941e-01      0.242 3.2022e+02      0.010    90.7703     0.3874  0.000e+00
        338     84.250      3.270    10.5238  31.684768     2.7315 7.2557e-01      0.263 3.2533e+02      0.010    90.7621     0.3877  0.000e+00
        339     84.500      3.277    10.5240  31.688897     2.7314 9.0639e-01      0.246 3.3714e+02      0.009    90.7703     0.3874  0.000e+00
        340     84.750      3.275    10.5246  31.692444     2.7314 8.7434e-01      0.271 3.4012e+02      0.008    91.1890     0.3689  0.000e+00
        341     85.000      3.268    10.5253  31.696340     2.7312 7.0039e-01      0.280 3.4072e+02      0.007    91.1939     0.3687  0.000e+00
        342     85.250      3.271    10.5265  31.698550     2.7311 7.6677e-01      0.311 3.4330e+02      0.007    91.1793     0.3694  0.000e+00
        343     85.500      3.260    10.5273  31.701807     2.7306 7.7821e-01      0.271 3.4676e+02      0.002    91.2086     0.3681  0.000e+00
        344     85.750      3.265    10.5280  31.698899     2.7306 7.1641e-01      0.261 3.4102e+02     -0.001    91.2102     0.3680  0.000e+00
        345     86.000      3.274    10.5280  31.698899     2.7304 7.9881e-01      0.240 3.3982e+02     -0.002    91.2167     0.3677  0.000e+00
        346     86.250      3.285    10.5282  31.700876     2.7308 7.4617e-01      0.256 3.5130e+02      0.002    91.1972     0.3686  0.000e+00
        347     86.500      3.292    10.5285  31.712102     2.7312 7.0954e-01      0.286 3.5546e+02      0.007    91.4791     0.3562  0.000e+00
        348     86.750      3.297    10.5297  31.706634     2.7314 7.2557e-01      0.256 3.4853e+02      0.014    91.4758     0.3564  0.000e+00
        349     87.000      3.296    10.5302  31.711753     2.7320 8.6976e-01      0.265 3.5167e+02      0.018    91.4644     0.3569  0.000e+00
        350     87.250      3.283    10.5310  31.716290     2.7327 6.7521e-01      0.259 3.5458e+02      0.016    91.4546     0.3573  0.000e+00
        351     87.500      3.274    10.5318  31.707797     2.7333 7.1870e-01      0.254 3.5828e+02      0.011    91.4579     0.3572  0.000e+00
        352     87.750      3.265    10.5315  31.702097     2.7339 6.8894e-01      0.265 3.5935e+02     -0.000    91.4546     0.3573  0.000e+00
        353     88.000      3.267    10.5309  31.700295     2.7340 7.9423e-01      0.259 3.5421e+02     -0.009    91.4465     0.3577  0.000e+00
        354     88.250      3.282    10.5302  31.703261     2.7340 1.0918e+00      0.256 3.4792e+02     -0.012    90.0338     0.4199  0.000e+00
        355     88.500      3.291    10.5301  31.705297     2.7334 7.6219e-01      0.259 3.4463e+02     -0.008    90.0370     0.4198  0.000e+00
        356     88.750      3.302    10.5303  31.703668     2.7330 1.0460e+00      0.280 3.5068e+02     -0.000    90.0321     0.4200  0.000e+00
        357     89.000      3.298    10.5302  31.700469     2.7325 8.2170e-01      0.273 3.5633e+02      0.008    90.2700     0.4095  0.000e+00
        358     89.250      3.289    10.5297  31.699306     2.7312 7.8508e-01      0.326 3.6055e+02      0.013    90.2749     0.4092  0.000e+00
        359     89.500      3.281    10.5294  31.698899     2.7309 7.2099e-01      0.273 3.5596e+02      0.012    90.2700     0.4095  0.000e+00
        360     89.750      3.270    10.5291  31.699713     2.7304 9.4301e-01      0.250 3.4548e+02      0.005    91.3210     0.3632  0.000e+00
        361     90.000      3.278    10.5291  31.699306     2.7300 1.2932e+00      0.256 3.4731e+02     -0.002    91.3096     0.3637  0.000e+00
        362     90.250      3.291    10.5291  31.699888     2.7290 2.7169e+00      0.280 3.5690e+02     -0.006    91.3243     0.3630  0.000e+00
        363     90.500      3.293    10.5289  31.701865     2.7292 1.1879e+00      0.248 3.5633e+02     -0.006    91.3064     0.3638  0.000e+00
        364     90.750      3.295    10.5291  31.702098     2.7285 8.8121e-01      0.290 3.4994e+02     -0.003    91.6094     0.3505  0.000e+00
        365     91.000      3.294    10.5292  31.700702     2.7284 1.2634e+00      0.296 3.4822e+02      0.003    91.6094     0.3505  0.000e+00
        366     91.250      3.281    10.5291  31.704424     2.7288 1.0231e+00      0.267 3.5136e+02      0.005    91.6013     0.3509  0.000e+00
        367     91.500      3.275    10.5297  31.683779     2.7286 7.3243e-01      0.231 3.5006e+02      0.003    91.9125     0.3373  0.000e+00
        368     91.750      3.268    10.5295  31.699888     2.7288 1.6297e+00      0.267 3.4859e+02     -0.002    91.9174     0.3371  0.000e+00
        369     92.000      3.268    10.5293  31.698899     2.7292 8.1483e-01      0.271 3.4914e+02     -0.011    91.9109     0.3374  0.000e+00
        370     92.250      3.268    10.5291  31.697561     2.7299 2.4926e+00      0.233 3.5136e+02     -0.016    91.0000     0.3772  0.000e+00
        371     92.500      3.263    10.5289  31.696340     2.7293 5.6672e+00      0.242 3.4816e+02     -0.018    91.0033     0.3771  0.000e+00
        372     92.750      3.265    10.5287  31.695758     2.7280 5.9442e+00      0.242 3.4688e+02     -0.016    90.9886     0.3777  0.000e+00
        373     93.000      3.263    10.5288  31.697038     2.7267 7.5257e+00      0.235 3.5241e+02     -0.013    91.0017     0.3772  0.000e+00
        374     93.250      3.261    10.5289  31.697736     2.7256 3.5500e+00      0.238 3.5715e+02     -0.008    90.3189     0.4073  0.000e+00
        375     93.500      3.263    10.5291  31.696340     2.7238 2.3644e+00      0.238 3.5658e+02     -0.005    90.3287     0.4069  0.000e+00
        376     93.750      3.265    10.5286  31.693200     2.7231 1.6297e+00      0.246 3.5130e+02     -0.003    90.3124     0.4076  0.000e+00
        377     94.000      3.263    10.5278  31.686687     2.7227 9.1554e-01      0.259 3.4216e+02     -0.002    92.0021     0.3334  0.000e+00
        378     94.250      3.259    10.5266  31.687908     2.7232 7.3930e-01      0.256 3.4933e+02     -0.003    91.9989     0.3336  0.000e+00
        379     94.500      3.254    10.5257  31.686629     2.7235 1.5015e+00      0.250 3.5099e+02     -0.004    92.0054     0.3333  0.000e+00
        380     94.750      3.249    10.5253  31.681570     2.7234 1.0964e+00      0.261 3.4835e+02     -0.006    91.2884     0.3646  0.000e+00
        381     95.000      3.250    10.5244  31.680407     2.7237 1.1673e+00      0.265 3.4439e+02     -0.008    91.2819     0.3649  0.000e+00
        382     95.250      3.250    10.5230  31.676279     2.7240 7.7134e-01      0.248 3.4554e+02     -0.008    91.2868     0.3647  0.000e+00
        383     95.500      3.259    10.5223  31.674884     2.7240 7.1412e-01      0.244 3.4633e+02     -0.006    91.2868     0.3647  0.000e+00
        384     95.750      3.262    10.5214  31.668605     2.7249 6.9123e-01      0.288 3.4264e+02     -0.003    91.4302     0.3584  0.000e+00
        385     96.000      3.269    10.5199  31.665814     2.7250 1.3642e+00      0.263 3.4276e+02      0.003    91.4335     0.3582  0.000e+00
        386     96.250      3.273    10.5188  31.663663     2.7246 1.0666e+00      0.315 3.3911e+02      0.009    91.4269     0.3585  0.000e+00
        387     96.500      3.263    10.5178  31.661687     2.7230 8.1483e-01      0.288 3.3934e+02      0.010    90.8729     0.3828  0.000e+00
        388     96.750      3.253    10.5171  31.659943     2.7227 6.4317e-01      0.324 3.3845e+02      0.007    90.8795     0.3825  0.000e+00
        389     97.000      3.239    10.5164  31.654246     2.7223 6.4775e-01      0.299 3.4282e+02     -0.001    90.8729     0.3828  0.000e+00
        390     97.250      3.232    10.5157  31.651398     2.7222 7.7592e-01      0.267 3.5161e+02     -0.010    90.8746     0.3828  0.000e+00
        391     97.500      3.220    10.5148  31.650061     2.7222 6.9810e-01      0.269 3.4902e+02     -0.022    91.4612     0.3570  0.000e+00
        392     97.750      3.224    10.5138  31.645005     2.7221 8.2399e-01      0.254 3.4566e+02     -0.027    91.4661     0.3568  0.000e+00
        393     98.000      3.227    10.5129  31.641460     2.7221 7.6677e-01      0.311 3.4391e+02     -0.028    91.4661     0.3568  0.000e+00
        394     98.250      3.242    10.5120  31.641227     2.7224 1.1284e+00      0.490 3.4354e+02     -0.021    91.4237     0.3587  0.000e+00
        395     98.500      3.253    10.5113  31.640646     2.7220 1.3321e+00      0.296 3.4048e+02     -0.007    91.4237     0.3587  0.000e+00
        396     98.750      3.264    10.5107  31.641460     2.7218 1.0803e+00      0.263 3.4204e+02      0.008    91.4253     0.3586  0.000e+00
        397     99.000      3.266    10.5108  31.645587     2.7215 7.8965e-01      0.280 3.4234e+02      0.019    91.4416     0.3579  0.000e+00
        398     99.250      3.270    10.5113  31.645180     2.7220 7.4617e-01      0.284 3.3976e+02      0.026    91.4514     0.3575  0.000e+00
        399     99.500      3.265    10.5113  31.642216     2.7211 2.5086e+00      0.294 3.4530e+02      0.028    91.4546     0.3573  0.000e+00
        400     99.750      3.252    10.5112  31.639252     2.7220 9.4072e-01      0.269 3.4780e+02      0.020    91.4481     0.3576  0.000e+00
        401    100.000      3.245    10.5105  31.638787     2.7211 7.3014e-01      0.259 3.4841e+02      0.009    91.7724     0.3434  0.000e+00
        402    100.250      3.242    10.5104  31.638670     2.7210 7.2099e-01      0.257 3.5124e+02     -0.003    91.7740     0.3434  0.000e+00
        403    100.500      3.244    10.5100  31.638264     2.7207 6.1799e-01      0.267 3.6087e+02     -0.011    91.7659     0.3437  0.000e+00
        404    100.750      3.244    10.5099  31.639077     2.7195 8.0110e-01      0.277 3.6521e+02     -0.015    91.4123     0.3592  0.000e+00
        405    101.000      3.249    10.5100  31.638903     2.7187 1.2840e+00      0.250 3.5759e+02     -0.013    91.4106     0.3592  0.000e+00
        406    101.250      3.248    10.5101  31.638612     2.7181 1.0872e+00      0.256 3.5471e+02     -0.010    91.4204     0.3588  0.000e+00
        407    101.500      3.254    10.5099  31.638089     2.7178 8.5374e-01      0.256 3.5923e+02     -0.003    90.8827     0.3824  0.000e+00
        408    101.750      3.254    10.5100  31.639252     2.7176 1.1101e+00      0.254 3.6418e+02      0.004    90.8827     0.3824  0.000e+00
        409    102.000      3.259    10.5103  31.639659     2.7178 7.9652e-01      0.412 3.6290e+02      0.008    90.8795     0.3825  0.000e+00
        410    102.250      3.252    10.5104  31.641228     2.7175 8.1483e-01      0.273 3.6246e+02      0.007    90.8843     0.3823  0.000e+00
        411    102.500      3.250    10.5106  31.640646     2.7164 7.5074e-01      0.275 3.7064e+02      0.005    91.6404     0.3492  0.000e+00
        412    102.750      3.247    10.5106  31.638496     2.7163 1.3230e+00      0.277 3.7457e+02      0.002    91.6306     0.3496  0.000e+00
        413    103.000      3.249    10.5104  31.638089     2.7160 8.0797e-01      0.311 3.7227e+02     -0.001    91.6388     0.3493  0.000e+00
        414    103.250      3.249    10.5102  31.637508     2.7168 6.8437e-01      0.277 3.5878e+02     -0.002    91.8408     0.3405  0.000e+00
        415    103.500      3.260    10.5097  31.637683     2.7163 6.5232e-01      0.256 3.6425e+02     -0.001    91.8392     0.3405  0.000e+00
        416    103.750      3.264    10.5094  31.638671     2.7172 6.7979e-01      0.267 3.8127e+02      0.003    91.8457     0.3402  0.000e+00
        417    104.000      3.267    10.5095  31.639600     2.7173 6.5919e-01      0.275 3.7319e+02      0.006    91.8457     0.3402  0.000e+00
        418    104.250      3.262    10.5097  31.638903     2.7173 6.7292e-01      0.286 3.6927e+02      0.009    91.3634     0.3613  0.000e+00
        419    104.500      3.258    10.5097  31.639077     2.7182 6.7750e-01      0.261 3.8995e+02      0.008    91.3715     0.3609  0.000e+00
        420    104.750      3.244    10.5099  31.639659     2.7190 6.5690e-01      0.259 3.9008e+02      0.003    91.3650     0.3612  0.000e+00
        421    105.000      3.242    10.5100  31.636346     2.7192 8.8808e-01      0.284 3.7516e+02     -0.003    91.4481     0.3576  0.000e+00
        422    105.250      3.237    10.5099  31.639600     2.7195 6.9123e-01      0.256 3.7207e+02     -0.010    91.4628     0.3570  0.000e+00
        423    105.500      3.243    10.5100  31.640065     2.7195 7.0726e-01      0.267 3.8899e+02     -0.014    91.4661     0.3568  0.000e+00
        424    105.750      3.250    10.5103  31.640646     2.7200 7.2328e-01      0.299 3.8383e+02     -0.013    90.4770     0.4003  0.000e+00
        425    106.000      3.261    10.5105  31.641228     2.7191 6.6148e-01      0.284 3.8295e+02     -0.006    90.4933     0.3996  0.000e+00
        426    106.250      3.270    10.5108  31.642622     2.7195 1.4237e+00      0.322 3.7834e+02      0.004    90.4802     0.4002  0.000e+00
        427    106.500      3.265    10.5110  31.642913     2.7188 1.3390e+00      0.242 3.7980e+02      0.011    90.4851     0.3999  0.000e+00
        428    106.750      3.261    10.5112  31.644192     2.7185 6.8437e-01      0.237 3.8674e+02      0.015    91.2510     0.3662  0.000e+00
        429    107.000      3.254    10.5115  31.643610     2.7182 6.2257e-01      0.366 3.8007e+02      0.012    91.2559     0.3660  0.000e+00
        430    107.250      3.246    10.5116  31.642622     2.7182 6.1570e-01      0.237 3.7987e+02      0.006    91.2526     0.3662  0.000e+00
        431    107.500      3.242    10.5114  31.639252     2.7180 6.5461e-01      0.271 3.8383e+02     -0.003    91.4025     0.3596  0.000e+00
        432    107.750      3.238    10.5109  31.636927     2.7185 6.6148e-01      0.252 3.8851e+02     -0.011    91.3960     0.3599  0.000e+00
        433    108.000      3.241    10.5103  31.636520     2.7183 6.6835e-01      0.259 3.8552e+02     -0.016    91.3992     0.3597  0.000e+00
        434    108.250      3.245    10.5100  31.636695     2.7184 7.3472e-01      0.296 3.8735e+02     -0.015    91.7936     0.3425  0.000e+00
        435    108.500      3.256    10.5098  31.636520     2.7185 2.3392e+00      0.261 3.8837e+02     -0.008    91.8082     0.3419  0.000e+00
        436    108.750      3.261    10.5097  31.636695     2.7184 8.1483e-01      0.246 3.8667e+02      0.000    91.8115     0.3417  0.000e+00
        437    109.000      3.257    10.5096  31.636695     2.7186 9.9336e-01      0.256 3.8810e+02      0.006    91.8115     0.3417  0.000e+00
        438    109.250      3.254    10.5097  31.636753     2.7181 3.1243e+00      0.242 3.9056e+02      0.009    92.0934     0.3295  0.000e+00
        439    109.500      3.243    10.5097  31.636520     2.7194 8.1941e-01      0.271 3.9043e+02      0.007    92.0950     0.3294  0.000e+00
        440    109.750      3.241    10.5098  31.636927     2.7189 6.8666e-01      0.277 3.9353e+02      0.003    92.0901     0.3296  0.000e+00
        441    110.000      3.239    10.5097  31.636520     2.7191 6.8208e-01      0.231 3.9415e+02     -0.004    91.6746     0.3477  0.000e+00
        442    110.250      3.240    10.5096  31.635358     2.7189 6.8666e-01      0.238 3.9222e+02     -0.008    91.6811     0.3474  0.000e+00
        443    110.500      3.249    10.5095  31.635881     2.7199 9.6590e-01      0.252 3.8967e+02     -0.009    91.6844     0.3473  0.000e+00
        444    110.750      3.251    10.5095  31.635707     2.7201 7.8279e-01      0.267 3.9311e+02     -0.006    91.7219     0.3456  0.000e+00
        445    111.000      3.260    10.5095  31.635707     2.7211 6.1799e-01      0.256 3.8647e+02      0.001    91.7300     0.3453  0.000e+00
        446    111.250      3.259    10.5096  31.635358     2.7218 7.5990e-01      0.250 3.8255e+02      0.007    91.7284     0.3454  0.000e+00
        447    111.500      3.262    10.5095  31.634777     2.7221 7.2786e-01      0.259 3.8215e+02      0.012    91.7268     0.3454  0.000e+00
        448    111.750      3.258    10.5096  31.634951     2.7227 7.5074e-01      0.301 3.8444e+02      0.013    91.7822     0.3430  0.000e+00
        449    112.000      3.252    10.5098  31.635067     2.7227 7.0726e-01      0.269 3.8599e+02      0.009    91.7838     0.3429  0.000e+00
        450    112.250      3.244    10.5100  31.634951     2.7225 6.5232e-01      0.246 3.8783e+02      0.003    91.7789     0.3432  0.000e+00
        451    112.500      3.239    10.5099  31.633963     2.7225 6.5461e-01      0.252 3.9297e+02     -0.005    91.5964     0.3511  0.000e+00
        452    112.750      3.228    10.5095  31.634370     2.7221 7.3014e-01      0.244 3.8960e+02     -0.013    91.5948     0.3512  0.000e+00
        453    113.000      3.226    10.5097  31.634777     2.7224 6.7063e-01      0.265 3.8831e+02     -0.019    91.5980     0.3510  0.000e+00
        454    113.250      3.226    10.5099  31.635300     2.7222 2.5017e+00      0.278 3.9063e+02     -0.021    91.5899     0.3514  0.000e+00
        455    113.500      3.237    10.5103  31.635358     2.7224 4.0215e+00      0.250 3.8255e+02     -0.018    91.5312     0.3540  0.000e+00
        456    113.750      3.257    10.5103  31.635126     2.7224 8.9952e-01      0.256 3.9609e+02     -0.007    91.5296     0.3540  0.000e+00
        457    114.000      3.279    10.5102  31.634951     2.7218 6.9810e-01      0.240 3.9284e+02      0.009    91.5377     0.3537  0.000e+00
        458    114.250      3.290    10.5100  31.635532     2.7207 6.5461e-01      0.277 3.6953e+02      0.025    91.3878     0.3602  0.000e+00
        459    114.500      3.295    10.5099  31.635300     2.7204 7.3014e-01      0.410 3.8593e+02      0.036    91.3911     0.3601  0.000e+00
        460    114.750      3.279    10.5097  31.634777     2.7201 7.7592e-01      0.298 3.9575e+02      0.039    91.3846     0.3604  0.000e+00
        461    115.000      3.262    10.5099  31.635358     2.7202 9.7276e-01      0.242 3.9222e+02      0.030    91.4383     0.3580  0.000e+00
        462    115.250      3.251    10.5104  31.635358     2.7201 7.2557e-01      0.227 3.9346e+02      0.016    91.4383     0.3580  0.000e+00
        463    115.500      3.248    10.5107  31.635707     2.7201 6.5690e-01      0.259 3.9847e+02     -0.001    91.4416     0.3579  0.000e+00
        464    115.750      3.257    10.5109  31.634951     2.7201 7.2328e-01      0.242 3.9180e+02     -0.013    91.4400     0.3579  0.000e+00
        465    116.000      3.272    10.5110  31.635300     2.7196 7.0268e-01      0.240 3.8396e+02     -0.016    91.1369     0.3712  0.000e+00
        466    116.250      3.278    10.5109  31.638089     2.7195 7.2099e-01      0.227 3.9931e+02     -0.011    91.1304     0.3715  0.000e+00
        467    116.500      3.289    10.5111  31.638903     2.7200 7.1412e-01      0.238 3.8960e+02      0.000    91.1336     0.3714  0.000e+00
        468    116.750      3.292    10.5110  31.639077     2.7202 7.1183e-01      0.246 3.7470e+02      0.014    92.0478     0.3315  0.000e+00
        469    117.000      3.292    10.5112  31.643204     2.7208 6.5232e-01      0.240 3.8477e+02      0.023    92.0347     0.3320  0.000e+00
        470    117.250      3.304    10.5113  31.643959     2.7211 6.7063e-01      0.246 3.9959e+02      0.029    92.0510     0.3313  0.000e+00
        471    117.500      3.299    10.5116  31.645587     2.7211 6.7292e-01      0.233 3.7635e+02      0.027    91.3618     0.3614  0.000e+00
        472    117.750      3.288    10.5121  31.645354     2.7204 6.8208e-01      0.250 3.9063e+02      0.017    91.3781     0.3607  0.000e+00
        473    118.000      3.284    10.5129  31.645761     2.7195 6.9581e-01      0.238 4.0432e+02      0.008    91.3781     0.3607  0.000e+00
        474    118.250      3.270    10.5133  31.645354     2.7185 6.9123e-01      0.252 4.0234e+02     -0.003    91.3732     0.3609  0.000e+00
        475    118.500      3.263    10.5133  31.643029     2.7184 7.0039e-01      0.229 3.8988e+02     -0.013    91.0571     0.3747  0.000e+00
        476    118.750      3.259    10.5132  31.642913     2.7173 9.7047e-01      0.347 3.9311e+02     -0.020    91.0603     0.3746  0.000e+00
        477    119.000      3.270    10.5133  31.644773     2.7171 9.9794e-01      0.252 3.8342e+02     -0.021    91.0652     0.3744  0.000e+00
        478    119.250      3.285    10.5135  31.646168     2.7179 7.3701e-01      0.330 3.8954e+02     -0.016    91.3667     0.3612  0.000e+00
        479    119.500      3.298    10.5136  31.649132     2.7187 6.5690e-01      0.259 4.0453e+02     -0.003    91.3813     0.3605  0.000e+00
        480    119.750      3.305    10.5138  31.648725     2.7188 6.5919e-01      0.227 4.0290e+02      0.010    91.3699     0.3610  0.000e+00
        481    120.000      3.299    10.5140  31.649364     2.7201 7.3472e-01      0.252 3.8885e+02      0.017    91.3683     0.3611  0.000e+00
        482    120.250      3.290    10.5142  31.647504     2.7205 7.2557e-01      0.278 3.8316e+02      0.020    91.7838     0.3429  0.000e+00
        483    120.500      3.275    10.5142  31.646342     2.7201 9.8878e-01      0.256 3.9505e+02      0.014    91.7691     0.3436  0.000e+00
        484    120.750      3.265    10.5141  31.645586     2.7204 7.2099e-01      0.298 3.9777e+02      0.003    91.7659     0.3437  0.000e+00
        485    121.000      3.267    10.5143  31.648144     2.7208 7.0268e-01      0.349 3.9297e+02     -0.009    90.7784     0.3870  0.000e+00
        486    121.250      3.278    10.5147  31.649306     2.7211 7.7821e-01      0.267 3.9408e+02     -0.015    90.7817     0.3869  0.000e+00
        487    121.500      3.287    10.5146  31.648957     2.7204 6.8437e-01      0.284 3.9443e+02     -0.014    90.7735     0.3872  0.000e+00
        488    121.750      3.289    10.5145  31.650294     2.7208 7.3930e-01      0.317 3.8824e+02     -0.009    91.6094     0.3505  0.000e+00
        489    122.000      3.285    10.5147  31.652852     2.7212 8.1712e-01      0.538 3.9903e+02     -0.001    91.5964     0.3511  0.000e+00
        490    122.250      3.278    10.5148  31.653840     2.7213 7.2328e-01      0.359 4.0846e+02      0.003    91.6029     0.3508  0.000e+00
        491    122.500      3.274    10.5153  31.653840     2.7212 6.6148e-01      0.256 3.9707e+02      0.005    91.5980     0.3510  0.000e+00
        492    122.750      3.280    10.5155  31.656397     2.7216 1.1055e+00      0.238 3.9249e+02      0.005    91.4498     0.3575  0.000e+00
        493    123.000      3.282    10.5159  31.659362     2.7211 9.5903e-01      0.246 3.8837e+02      0.002    91.4514     0.3575  0.000e+00
        494    123.250      3.291    10.5163  31.659362     2.7215 1.6594e+00      0.254 3.9861e+02      0.000    91.4612     0.3570  0.000e+00
        495    123.500      3.293    10.5165  31.660931     2.7211 1.5106e+00      0.338 4.0510e+02      0.002    90.9935     0.3775  0.000e+00
        496    123.750      3.289    10.5167  31.661920     2.7208 7.8050e-01      0.378 4.0100e+02      0.004    90.9968     0.3774  0.000e+00
        497    124.000      3.276    10.5172  31.659943     2.7209 9.1096e-01      0.315 4.0312e+02      0.003    90.9903     0.3777  0.000e+00
        498    124.250      3.271    10.5172  31.659129     2.7204 7.3243e-01      0.296 4.0064e+02      0.000    91.0342     0.3757  0.000e+00
        499    124.500      3.276    10.5172  31.660699     2.7201 1.2039e+00      0.263 3.9457e+02     -0.002    91.0391     0.3755  0.000e+00
        500    124.750      3.274    10.5174  31.662675     2.7204 9.6361e-01      0.277 3.9056e+02     -0.007    91.0489     0.3751  0.000e+00
        501    125.000      3.276    10.5174  31.664477     2.7211 7.0268e-01      0.298 4.0482e+02     -0.008    91.0457     0.3752  0.000e+00
        502    125.250      3.283    10.5174  31.665466     2.7196 1.4191e+00      0.252 4.0954e+02     -0.008    91.6844     0.3473  0.000e+00
        503    125.500      3.284    10.5175  31.665117     2.7196 7.3472e-01      0.341 3.9540e+02     -0.003    91.6877     0.3471  0.000e+00
        504    125.750      3.287    10.5176  31.665466     2.7195 9.9107e-01      0.259 3.9077e+02      0.003    91.6828     0.3473  0.000e+00
        505    126.000      3.283    10.5177  31.666221     2.7195 1.2589e+00      0.259 3.9616e+02      0.007    91.5182     0.3545  0.000e+00
        506    126.250      3.276    10.5178  31.666396     2.7191 7.9194e-01      0.238 3.9973e+02      0.005    91.5133     0.3547  0.000e+00
        507    126.500      3.283    10.5180  31.666628     2.7191 7.2328e-01      0.231 4.0093e+02      0.003    91.5149     0.3547  0.000e+00
        508    126.750      3.283    10.5178  31.668779     2.7187 8.5374e-01      0.252 3.9470e+02      0.003    91.3992     0.3597  0.000e+00
        509    127.000      3.281    10.5183  31.669012     2.7188 8.4001e-01      0.242 3.9533e+02      0.000    91.4074     0.3594  0.000e+00
        510    127.250      3.279    10.5185  31.670175     2.7192 1.4420e+00      0.223 3.9505e+02     -0.002    91.3992     0.3597  0.000e+00
        511    127.500      3.275    10.5187  31.670175     2.7195 7.5990e-01      0.246 3.9436e+02     -0.004    91.4090     0.3593  0.000e+00
        512    127.750      3.273    10.5190  31.670175     2.7202 6.5232e-01      0.242 3.9868e+02     -0.005    91.3227     0.3631  0.000e+00
        513    128.000      3.278    10.5191  31.671570     2.7214 6.7750e-01      0.235 4.0589e+02     -0.003    91.3145     0.3634  0.000e+00
        514    128.250      3.284    10.5191  31.670465     2.7218 1.1467e+00      0.233 3.9084e+02     -0.001    91.3178     0.3633  0.000e+00
        515    128.500      3.295    10.5191  31.675291     2.7221 9.3385e-01      0.242 3.8837e+02      0.003    90.8811     0.3825  0.000e+00
        516    128.750      3.295    10.5194  31.675872     2.7221 7.4159e-01      0.244 4.0775e+02      0.007    90.8729     0.3828  0.000e+00
        517    129.000      3.291    10.5196  31.677617     2.7223 7.5074e-01      0.278 4.0050e+02      0.010    90.8762     0.3827  0.000e+00
        518    129.250      3.285    10.5203  31.678605     2.7221 7.4617e-01      0.250 3.8797e+02      0.009    90.8778     0.3826  0.000e+00
        519    129.500      3.274    10.5210  31.673895     2.7227 7.0039e-01      0.256 3.9367e+02      0.005    91.7626     0.3439  0.000e+00
        520    129.750      3.268    10.5212  31.671512     2.7227 7.1870e-01      0.286 4.0319e+02     -0.002    91.7626     0.3439  0.000e+00
        521    130.000      3.268    10.5210  31.674302     2.7227 7.0268e-01      0.292 3.9526e+02     -0.010    91.7561     0.3441  0.000e+00
        522    130.250      3.279    10.5212  31.677442     2.7227 9.9107e-01      0.288 3.9139e+02     -0.012    91.0391     0.3755  0.000e+00
        523    130.500      3.281    10.5214  31.680407     2.7233 6.7750e-01      0.261 3.9222e+02     -0.011    91.0391     0.3755  0.000e+00
        524    130.750      3.287    10.5221  31.684536     2.7234 2.1561e+00      0.261 4.0818e+02     -0.005    91.0359     0.3757  0.000e+00
        525    131.000      3.297    10.5227  31.685350     2.7234 1.5404e+00      0.261 4.0632e+02      0.004    91.1939     0.3687  0.000e+00
        526    131.250      3.294    10.5231  31.686048     2.7225 1.4557e+00      0.263 3.8831e+02      0.010    91.1972     0.3686  0.000e+00
        527    131.500      3.283    10.5235  31.685524     2.7228 1.0941e+00      0.227 3.8633e+02      0.012    91.1874     0.3690  0.000e+00
        528    131.750      3.279    10.5239  31.683547     2.7221 7.6677e-01      0.235 3.9194e+02      0.009    91.1972     0.3686  0.000e+00
        529    132.000      3.280    10.5238  31.683954     2.7221 7.8737e-01      0.313 4.0015e+02      0.004    91.3634     0.3613  0.000e+00
        530    132.250      3.285    10.5238  31.686106     2.7220 1.5290e+00      0.275 4.0036e+02     -0.001    91.3471     0.3620  0.000e+00
        531    132.500      3.287    10.5239  31.691223     2.7221 9.3385e-01      0.263 3.9554e+02     -0.002    91.3569     0.3616  0.000e+00
        532    132.750      3.285    10.5251  31.692211     2.7223 7.7134e-01      0.294 4.0347e+02     -0.004    91.2298     0.3672  0.000e+00
        533    133.000      3.281    10.5257  31.691048     2.7223 7.4846e-01      0.275 3.9721e+02     -0.005    91.2184     0.3677  0.000e+00
        534    133.250      3.277    10.5259  31.688897     2.7228 7.2557e-01      0.288 4.0724e+02     -0.004    91.2363     0.3669  0.000e+00
        535    133.500      3.264    10.5258  31.688489     2.7237 7.3243e-01      0.290 4.0205e+02     -0.005    90.8827     0.3824  0.000e+00
        536    133.750      3.273    10.5256  31.688490     2.7249 7.5074e-01      0.261 4.0029e+02     -0.006    90.8827     0.3824  0.000e+00
        537    134.000      3.275    10.5257  31.692269     2.7253 8.1025e-01      0.259 3.8383e+02     -0.008    90.8876     0.3822  0.000e+00
        538    134.250      3.294    10.5262  31.701284     2.7254 7.8279e-01      0.263 4.0276e+02     -0.003    90.8827     0.3824  0.000e+00
        539    134.500      3.300    10.5273  31.710939     2.7262 9.1554e-01      0.410 4.0411e+02      0.004    91.1190     0.3720  0.000e+00
        540    134.750      3.303    10.5288  31.714313     2.7260 7.8050e-01      0.246 3.9070e+02      0.011    91.1206     0.3719  0.000e+00
        541    135.000      3.302    10.5307  31.711113     2.7270 8.6519e-01      0.257 3.8933e+02      0.017    91.1206     0.3719  0.000e+00
        542    135.250      3.288    10.5315  31.706227     2.7272 9.6590e-01      0.303 3.8694e+02      0.016    90.8827     0.3824  0.000e+00
        543    135.500      3.272    10.5312  31.699946     2.7268 8.4001e-01      0.235 3.9595e+02      0.010    90.8957     0.3818  0.000e+00
        544    135.750      3.259    10.5304  31.692036     2.7273 1.1696e+00      0.265 4.0375e+02     -0.005    90.8827     0.3824  0.000e+00
        545    136.000      3.253    10.5287  31.685116     2.7266 4.6304e+00      0.246 4.0753e+02     -0.017    90.8795     0.3825  0.000e+00
        546    136.250      3.257    10.5272  31.691455     2.7269 1.5564e+00      0.244 3.9470e+02     -0.027    90.9055     0.3814  0.000e+00
        547    136.500      3.270    10.5264  31.710357     2.7262 2.0783e+00      0.265 3.9091e+02     -0.026    90.9055     0.3814  0.000e+00
        548    136.750      3.292    10.5287  31.758475     2.7272 8.9265e-01      0.324 3.9568e+02     -0.015    90.9088     0.3813  0.000e+00
        549    137.000      3.305    10.5346  31.763247     2.7273 1.9707e+00      0.456 3.9284e+02      0.001    90.9642     0.3788  0.000e+00
        550    137.250      3.306    10.5393  31.766215     2.7286 1.3596e+00      0.269 3.8688e+02      0.017    90.9658     0.3787  0.000e+00
        551    137.500      3.296    10.5430  31.767205     2.7288 9.2927e-01      0.395 3.9118e+02      0.025    90.9642     0.3788  0.000e+00
        552    137.750      3.288    10.5448  31.742528     2.7304 1.5290e+00      1.457 3.9749e+02      0.025    91.3390     0.3624  0.000e+00
        553    138.000      3.277    10.5433  31.732229     2.7324 1.1147e+00      0.378 3.9360e+02      0.017    91.3308     0.3627  0.000e+00
        554    138.250      3.269    10.5408  31.724957     2.7332 1.1398e+00      1.102 3.9194e+02      0.003    91.3292     0.3628  0.000e+00
        555    138.500      3.274    10.5386  31.731066     2.7337 1.0689e+00      0.328 3.9242e+02     -0.008    91.3243     0.3630  0.000e+00
        556    138.750      3.289    10.5376  31.774889     2.7354 8.9952e-01      0.242 3.8824e+02     -0.013    90.8355     0.3845  0.000e+00
        557    139.000      3.301    10.5414  31.802195     2.7369 9.2241e-01      0.259 3.8817e+02     -0.009    90.8338     0.3846  0.000e+00
        558    139.250      3.303    10.5477  31.808717     2.7376 8.3085e-01      0.288 3.8981e+02      0.000    90.8387     0.3843  0.000e+00
        559    139.500      3.308    10.5523  31.814656     2.7391 9.0410e-01      0.263 3.9526e+02      0.011    91.0440     0.3753  0.000e+00
        560    139.750      3.298    10.5547  31.815413     2.7385 7.9423e-01      0.252 3.8593e+02      0.015    91.0522     0.3750  0.000e+00
        561    140.000      3.280    10.5551  31.807318     2.7388 9.8192e-01      0.256 3.8749e+02      0.012    91.0424     0.3754  0.000e+00
        562    140.250      3.276    10.5548  31.800330     2.7395 1.0575e+00      0.265 3.9519e+02      0.005    91.5834     0.3517  0.000e+00
        563    140.500      3.268    10.5535  31.794682     2.7400 1.0437e+00      0.263 4.0255e+02     -0.007    91.5834     0.3517  0.000e+00
        564    140.750      3.279    10.5522  31.819374     2.7403 9.7734e-01      0.250 3.8756e+02     -0.015    91.5801     0.3518  0.000e+00
        565    141.000      3.292    10.5523  31.883002     2.7407 7.6448e-01      0.259 3.8148e+02     -0.014    91.5752     0.3520  0.000e+00
        566    141.250      3.299    10.5543  31.890521     2.7408 8.5603e-01      0.271 3.8511e+02     -0.008    91.2656     0.3656  0.000e+00
        567    141.500      3.299    10.5564  31.883235     2.7415 8.5603e-01      0.357 3.8484e+02     -0.000    91.2461     0.3664  0.000e+00
        568    141.750      3.290    10.5578  31.859630     2.7420 9.6361e-01      0.299 3.8776e+02      0.006    91.2510     0.3662  0.000e+00
        569    142.000      3.275    10.5568  31.830499     2.7417 1.3848e+00      0.267 3.8647e+02      0.007    90.6334     0.3934  0.000e+00
        570    142.250      3.266    10.5550  31.834286     2.7414 8.6290e-01      0.269 3.7635e+02      0.000    90.6220     0.3939  0.000e+00
        571    142.500      3.264    10.5535  31.813258     2.7407 1.2177e+00      0.277 3.8667e+02     -0.007    90.6155     0.3942  0.000e+00
        572    142.750      3.266    10.5519  31.794100     2.7398 2.1927e+00      0.303 3.8926e+02     -0.015    91.0668     0.3743  0.000e+00
        573    143.000      3.266    10.5502  31.781233     2.7390 1.1398e+00      0.256 3.8168e+02     -0.020    91.1174     0.3721  0.000e+00
        574    143.250      3.267    10.5482  31.761092     2.7386 8.8579e-01      0.343 3.6772e+02     -0.019    91.0978     0.3729  0.000e+00
        575    143.500      3.285    10.5460  31.756728     2.7384 9.0639e-01      0.282 3.5483e+02     -0.009    91.1125     0.3723  0.000e+00
        576    143.750      3.286    10.5446  31.762431     2.7377 8.4459e-01      0.277 3.6081e+02      0.001    91.4123     0.3592  0.000e+00
        577    144.000      3.286    10.5442  31.784377     2.7379 8.6519e-01      0.250 3.6701e+02      0.010    91.4172     0.3589  0.000e+00
        578    144.250      3.277    10.5451  31.792470     2.7382 9.3843e-01      0.271 3.5796e+02      0.012    91.4237     0.3587  0.000e+00
        579    144.500      3.255    10.5466  31.775703     2.7380 1.4076e+00      0.320 3.5471e+02      0.004    91.2363     0.3669  0.000e+00
        580    144.750      3.192    10.5470  31.766796     2.7387 9.5674e-01      0.261 3.5992e+02     -0.021    91.2542     0.3661  0.000e+00
        581    145.000      3.052    10.5458  31.720185     2.7388 1.1719e+00      0.349 3.7437e+02     -0.077    91.2510     0.3662  0.000e+00
        582    145.250      2.889    10.5416  31.722396     2.7390 8.0339e-01      0.280 3.8620e+02     -0.162    91.2412     0.3667  0.000e+00
        583    145.500      2.746    10.5385  31.722745     2.7375 1.0094e+00      0.271 3.9526e+02     -0.260    91.4889     0.3558  0.000e+00
        584    145.750      2.606    10.5370  31.708551     2.7369 8.0797e-01      0.414 4.2078e+02     -0.355    91.4807     0.3562  0.000e+00
        585    146.000      2.466    10.5348  31.668601     2.7355 7.6448e-01      0.320 4.5412e+02     -0.441    91.4758     0.3564  0.000e+00
        586    146.250      2.320    10.5299  31.651685     2.7349 1.0918e+00      0.256 4.6331e+02     -0.512    91.3210     0.3632  0.000e+00
        587    146.500      2.163    10.5246  31.636109     2.7340 8.4688e-01      0.256 4.5284e+02     -0.563    91.3096     0.3637  0.000e+00
        588    146.750      2.000    10.5201  31.630530     2.7333 1.0071e+00      0.246 4.8318e+02     -0.590    91.3210     0.3632  0.000e+00
        589    147.000      1.850    10.5177  31.625126     2.7326 8.1483e-01      0.257 5.1166e+02     -0.595    91.2298     0.3672  0.000e+00
        590    147.250      1.697    10.5165  31.616468     2.7307 1.9043e+00      0.277 5.4288e+02     -0.598    91.2330     0.3670  0.000e+00
        591    147.500      1.551    10.5155  31.606824     2.7301 7.2557e-01      0.290 5.9743e+02     -0.604    91.2330     0.3670  0.000e+00
        592    147.750      1.406    10.5143  31.602524     2.7288 6.5690e-01      0.271 6.0867e+02     -0.607    91.2249     0.3674  0.000e+00
        593    148.000      1.269    10.5140  31.583066     2.7272 9.0181e-01      0.242 6.2328e+02     -0.604    91.3422     0.3622  0.000e+00
        594    148.250      1.130    10.5154  31.578187     2.7267 5.7908e-01      0.248 6.5898e+02     -0.595    91.3406     0.3623  0.000e+00
        595    148.500      0.982    10.5178  31.576386     2.7256 5.4475e-01      0.250 7.7650e+02     -0.586    91.3406     0.3623  0.000e+00
        596    148.750      0.830    10.5200  31.572669     2.7233 6.1341e-01      0.305 7.4273e+02     -0.580    91.9256     0.3368  0.000e+00
        597    149.000      0.686    10.5220  31.572901     2.7225 6.2257e-01      0.259 8.5904e+02     -0.578    91.9174     0.3371  0.000e+00
        598    149.250      0.579    10.5235  31.570171     2.7211 1.0323e+00      0.244 8.8012e+02     -0.567    91.9207     0.3370  0.000e+00
        599    149.500      0.546    10.5248  31.567210     2.7197 4.8753e-01      0.242 9.6721e+02     -0.531    92.0429     0.3317  0.000e+00
        600    149.750      0.546    10.5266  31.558558     2.7184 5.4475e-01      0.250 8.6237e+02     -0.467    92.0445     0.3316  0.000e+00
        601    150.000      0.552    10.5299  31.561519     2.7166 4.6464e-01      0.246 9.4603e+02     -0.382    92.0478     0.3315  0.000e+00
        602    150.250      0.566    10.5320  31.558558     2.7156 7.0726e-01      0.250 8.3950e+02     -0.283    92.0461     0.3315  0.000e+00
        603    150.500      0.575    10.5334  31.556293     2.7150 4.2115e-01      0.565 8.5108e+02     -0.181    91.8441     0.3403  0.000e+00
        604    150.750      0.577    10.5359  31.556177     2.7141 4.2344e-01      0.278 8.9840e+02     -0.091    91.8555     0.3398  0.000e+00
        605    151.000      0.564    10.5379  31.554841     2.7124 4.3717e-01      0.252 9.1433e+02     -0.028    91.8636     0.3395  0.000e+00
        606    151.250      0.557    10.5399  31.556583     2.7125 4.4404e-01      0.292 8.9227e+02      0.003    91.5231     0.3543  0.000e+00
        607    151.500      0.557    10.5401  31.557163     2.7117 3.9368e-01      0.263 8.3435e+02      0.007    91.5345     0.3538  0.000e+00
        608    151.750      0.572    10.5392  31.557570     2.7110 4.3030e-01      0.254 8.0951e+02      0.006    91.5149     0.3547  0.000e+00
        609    152.000      0.583    10.5379  31.558151     2.7100 3.9597e-01      0.269 8.7519e+02      0.006    91.5133     0.3547  0.000e+00
        610    152.250      0.592    10.5365  31.558151     2.7092 4.6006e-01      0.256 7.7745e+02      0.007    92.1292     0.3279  0.000e+00
        611    152.500      0.599    10.5349  31.557745     2.7086 2.5887e+00      0.277 7.6876e+02      0.013    92.1292     0.3279  0.000e+00
        612    152.750      0.600    10.5338  31.557745     2.7077 1.0758e+00      0.280 8.4750e+02      0.019    92.1341     0.3277  0.000e+00
        613    153.000      0.701    10.5332  31.557977     2.7067 4.8753e-01      0.256 6.9917e+02      0.052    92.0298     0.3322  0.000e+00
        614    153.250      0.921    10.5325  31.560533     2.7060 4.3488e-01      0.248 7.9849e+02      0.130    92.0266     0.3324  0.000e+00
        615    153.500      1.145    10.5304  31.568140     2.7053 4.3030e-01      0.229 7.2012e+02      0.243    92.0331     0.3321  0.000e+00
        616    153.750      1.376    10.5263  31.570348     2.7058 6.2715e-01      0.244 6.4682e+02      0.377    91.2787     0.3650  0.000e+00
        617    154.000      1.637    10.5218  31.569942     2.7050 4.6235e-01      0.242 6.1049e+02      0.532    91.2705     0.3654  0.000e+00
        618    154.250      1.918    10.5187  31.568724     2.7047 5.0355e-01      0.238 5.1247e+02      0.694    91.2819     0.3649  0.000e+00
        619    154.500      2.179    10.5179  31.574648     2.7047 7.9652e-01      0.233 4.8950e+02      0.840    91.2705     0.3654  0.000e+00
        620    154.750      2.430    10.5153  31.602527     2.7043 1.4809e+00      0.261 4.3468e+02      0.949    91.5671     0.3524  0.000e+00
        621    155.000      2.667    10.5114  31.633787     2.7041 1.6342e+00      0.254 4.0753e+02      1.000    91.5654     0.3525  0.000e+00
        622    155.250      2.888    10.5099  31.669593     2.7041 7.9423e-01      0.257 3.8715e+02      1.006    91.5720     0.3522  0.000e+00
        623    155.500      3.100    10.5141  31.764297     2.7034 8.6976e-01      0.254 3.5967e+02      0.995    91.5019     0.3552  0.000e+00
        624    155.750      3.316    10.5270  31.812679     2.7041 1.7807e+00      0.254 3.4060e+02      0.972    91.4905     0.3557  0.000e+00
        625    156.000      3.551    10.5295  32.000310     2.7050 1.4832e+00      0.259 3.1972e+02      0.943    91.4938     0.3556  0.000e+00
        626    156.250      3.803    10.5108  31.988347     2.7053 1.2016e+00      0.275 3.0862e+02      0.924    91.2347     0.3669  0.000e+00
        627    156.500      4.069    10.4743  31.979597     2.7057 9.8650e-01      0.437 2.9344e+02      0.925    91.2363     0.3669  0.000e+00
        628    156.750      4.334    10.4388  31.975458     2.7057 1.0414e+00      0.250 2.8217e+02      0.940    91.2249     0.3674  0.000e+00
        629    157.000      4.613    10.4133  31.974236     2.7073 1.4443e+00      0.280 2.7037e+02      0.970    91.2298     0.3672  0.000e+00
        630    157.250      4.870    10.3957  31.975231     2.7081 1.0918e+00      0.248 2.5366e+02      1.002    90.7230     0.3894  0.000e+00
        631    157.500      5.114    10.3845  31.978209     2.7094 9.0867e-01      0.288 2.3916e+02      1.025    90.7100     0.3900  0.000e+00
        632    157.750      5.349    10.3758  31.975234     2.7105 9.2241e-01      0.210 2.2867e+02      1.034    90.7198     0.3896  0.000e+00
        633    158.000      5.567    10.3671  31.973719     2.7113 1.5770e+00      0.231 2.1950e+02      1.022    91.0033     0.3771  0.000e+00
        634    158.250      5.808    10.3591  31.971853     2.7114 1.9524e+00      0.202 2.0885e+02      1.003    91.0131     0.3767  0.000e+00
        635    158.500      6.046    10.3508  31.966895     2.7104 1.8997e+00      0.185 1.9987e+02      0.981    91.0180     0.3765  0.000e+00
        636    158.750      6.291    10.3377  31.960304     2.7090 2.0325e+00      0.177 1.9007e+02      0.964    91.5394     0.3536  0.000e+00
        637    159.000      6.537    10.3214  31.961298     2.7065 1.4328e+00      0.198 1.8005e+02      0.952    91.7870     0.3428  0.000e+00
        638    159.250      6.785    10.3097  31.961533     2.7042 1.5061e+00      0.196 1.6813e+02      0.953    91.7903     0.3427  0.000e+00
        639    159.500      7.029    10.3036  31.959143     2.7016 1.0895e+00      0.202 1.7150e+02      0.959    91.7822     0.3430  0.000e+00
        640    159.750      7.275    10.2974  31.949984     2.6993 1.4763e+00      0.168 1.6546e+02      0.969    92.5073     0.3115  0.000e+00
        641    160.000      7.515    10.2838  31.950162     2.6955 9.3385e-01      0.189 1.5890e+02      0.977    92.5105     0.3114  0.000e+00
        642    160.250      7.773    10.2686  31.945030     2.6926 1.4694e+00      0.187 1.5223e+02      0.982    92.5073     0.3115  0.000e+00
        643    160.500      8.033    10.2552  31.944041     2.6892 2.7924e+00      0.227 1.4487e+02      0.989    92.8934     0.2949  0.000e+00
        644    160.750      8.283    10.2455  31.941651     2.6859 9.8878e-01      0.156 1.3733e+02      0.994    92.8869     0.2951  0.000e+00
        645    161.000      8.524    10.2380  31.941653     2.6822 1.2726e+00      0.137 1.3124e+02      0.997    92.8902     0.2950  0.000e+00
        646    161.250      8.762    10.2314  31.940662     2.6793 1.0094e+00      0.145 1.2562e+02      0.995    92.8934     0.2949  0.000e+00
        647    161.500      8.994    10.2256  31.939672     2.6761 8.5374e-01      0.164 1.2038e+02      0.990    93.2047     0.2815  0.000e+00
        648    161.750      9.223    10.2203  31.938448     2.6741 1.0712e+00      0.263 1.1789e+02      0.980    93.2161     0.2810  0.000e+00
        649    162.000      9.460    10.2157  31.938275     2.6711 1.0552e+00      0.225 1.1268e+02      0.969    93.2112     0.2812  0.000e+00
        650    162.250      9.704    10.2121  31.938684     2.6687 1.4168e+00      0.172 1.0750e+02      0.957    93.4491     0.2710  0.000e+00
        651    162.500      9.953    10.2089  31.938452     2.6644 2.4834e+00      0.153 1.0235e+02      0.952    93.4311     0.2718  0.000e+00
        652    162.750     10.214    10.2052  31.937928     2.6632 9.2241e-01      0.154 9.7517e+01      0.957    93.4377     0.2715  0.000e+00
        653    163.000     10.501    10.2010  31.937113     2.6615 3.1495e+00      0.198 9.2799e+01      0.978    93.2405     0.2800  0.000e+00
        654    163.250     10.793    10.1968  31.936472     2.6574 1.1284e+00      0.170 8.7844e+01      1.008    93.2438     0.2798  0.000e+00
        655    163.500     11.089    10.1938  31.935774     2.6551 1.3825e+00      0.200 8.2876e+01      1.046    93.2503     0.2795  0.000e+00
        656    163.750     11.365    10.1914  31.934142     2.6529 8.3772e-01      0.139 7.8533e+01      1.079    93.2405     0.2800  0.000e+00
        657    164.000     11.635    10.1891  31.933735     2.6510 9.0181e-01      0.149 7.4496e+01      1.102    93.6381     0.2629  0.000e+00
        658    164.250     11.894    10.1873  31.931111     2.6482 8.8350e-01      0.166 7.1845e+01      1.113    93.6560     0.2622  0.000e+00
        659    164.500     12.153    10.1848  31.924347     2.6462 7.2328e-01      0.143 6.9361e+01      1.112    93.6413     0.2628  0.000e+00
        660    164.750     12.418    10.1790  31.923182     2.6441 1.5908e+00      0.147 6.6085e+01      1.101    93.6104     0.2641  0.000e+00
        661    165.000     12.689    10.1733  31.923300     2.6419 9.4530e-01      0.132 6.2919e+01      1.085    93.6136     0.2640  0.000e+00
        662    165.250     12.973    10.1690  31.921785     2.6390 8.1483e-01      0.181 5.9443e+01      1.076    93.6185     0.2638  0.000e+00
        663    165.500     13.260    10.1649  31.919803     2.6369 7.6677e-01      0.156 5.6415e+01      1.076    93.6870     0.2608  0.000e+00
        664    165.750     13.545    10.1604  31.916422     2.6354 1.1009e+00      0.158 5.3486e+01      1.086    93.7049     0.2601  0.000e+00
        665    166.000     13.839    10.1539  31.915433     2.6334 1.0300e+00      0.114 5.0824e+01      1.103    93.7016     0.2602  0.000e+00
        666    166.250     14.126    10.1420  31.914852     2.6313 8.7434e-01      0.130 4.8312e+01      1.121    93.7065     0.2600  0.000e+00
        667    166.500     14.406    10.1288  31.914271     2.6293 8.6290e-01      0.135 4.5931e+01      1.134    94.0324     0.2461  0.000e+00
        668    166.750     14.676    10.1195  31.913048     2.6275 7.3014e-01      0.160 4.3830e+01      1.138    94.0210     0.2466  0.000e+00
        669    167.000     14.931    10.1124  31.912466     2.6259 6.5232e-01      0.156 4.2770e+01      1.130    94.0340     0.2461  0.000e+00
        670    167.250     15.193    10.1065  31.912643     2.6239 9.4987e-01      0.137 4.0942e+01      1.114    94.3241     0.2337  0.000e+00
        671    167.500     15.460    10.1021  31.912644     2.6210 3.7102e+00      0.143 3.9137e+01      1.098    94.3339     0.2333  0.000e+00
        672    167.750     15.735    10.0975  31.912645     2.6188 1.1032e+00      0.130 3.7458e+01      1.085    94.3306     0.2335  0.000e+00
        673    168.000     16.024    10.0933  31.912647     2.6167 7.0726e-01      0.212 3.5743e+01      1.079    94.3224     0.2338  0.000e+00
        674    168.250     16.310    10.0901  31.912298     2.6138 6.3630e-01      0.147 3.3999e+01      1.082    94.3827     0.2312  0.000e+00
        675    168.500     16.601    10.0873  31.911308     2.6115 6.8208e-01      0.139 3.2299e+01      1.094    94.3876     0.2310  0.000e+00
        676    168.750     16.877    10.0842  31.911484     2.6096 8.1025e-01      0.174 3.0842e+01      1.108    94.3860     0.2311  0.000e+00
        677    169.000     17.149    10.0814  31.909503     2.6067 1.3664e+00      0.154 2.9346e+01      1.119    92.8364     0.2973  0.000e+00
        678    169.250     17.417    10.0741  31.907813     2.6049 2.3301e+00      0.132 2.7908e+01      1.122    92.8315     0.2975  0.000e+00
        679    169.500     17.700    10.0655  31.905308     2.6023 9.7276e-01      0.151 2.6489e+01      1.122    92.8494     0.2968  0.000e+00
        680    169.750     17.979    10.0573  31.911898     2.5998 4.2847e+00      0.238 2.5824e+01      1.118    93.2161     0.2810  0.000e+00
        681    170.000     18.262    10.0516  31.915690     2.5972 1.9249e+00      0.164 2.4506e+01      1.113    93.2047     0.2815  0.000e+00
        682    170.250     18.554    10.0484  31.912484     2.5949 2.2316e+00      0.143 2.3186e+01      1.114    93.2193     0.2809  0.000e+00
        683    170.500     18.846    10.0433  31.898784     2.5921 1.5152e+00      0.237 2.1971e+01      1.120    93.2161     0.2810  0.000e+00
        684    170.750     19.128    10.0314  31.899602     2.5900 1.8860e+00      0.141 2.0808e+01      1.129    92.8413     0.2971  0.000e+00
        685    171.000     19.387    10.0168  31.912082     2.5866 1.1170e+00      0.137 1.9829e+01      1.130    92.8299     0.2976  0.000e+00
        686    171.250     19.650    10.0025  31.917041     2.5838 1.0964e+00      0.162 1.8946e+01      1.125    92.8478     0.2968  0.000e+00
        687    171.500     19.908     9.9934  31.918325     2.5802 1.6663e+00      0.174 1.8089e+01      1.111    93.9151     0.2511  0.000e+00
        688    171.750     20.169     9.9888  31.917860     2.5779 9.1325e-01      0.132 1.7289e+01      1.095    93.9069     0.2515  0.000e+00
        689    172.000     20.441     9.9847  31.909348     2.5738 2.9412e+00      0.132 1.6530e+01      1.081    93.9118     0.2513  0.000e+00
        690    172.250     20.715     9.9753  31.907309     2.5699 1.4168e+00      0.132 1.5804e+01      1.069    94.1807     0.2398  0.000e+00
        691    172.500     20.996     9.9662  31.906961     2.5656 1.1879e+00      0.143 1.5380e+01      1.066    94.1758     0.2400  0.000e+00
        692    172.750     21.283     9.9606  31.908945     2.5609 1.1032e+00      0.137 1.4624e+01      1.074    94.1823     0.2398  0.000e+00
        693    173.000     21.562     9.9551  31.909121     2.5557 1.4763e+00      0.156 1.3900e+01      1.088    94.1791     0.2399  0.000e+00
        694    173.250     21.847     9.9440  31.907549     2.5514 9.5445e-01      0.141 1.3232e+01      1.102    93.1264     0.2848  0.000e+00
        695    173.500     22.130     9.9308  31.906851     2.5463 1.0849e+00      0.147 1.2561e+01      1.116    93.1444     0.2841  0.000e+00
        696    173.750     22.426     9.9195  31.906737     2.5414 9.3385e-01      0.124 1.1966e+01      1.129    93.1411     0.2842  0.000e+00
        697    174.000     22.714     9.9107  31.907730     2.5367 8.1483e-01      0.175 1.1373e+01      1.137    93.4556     0.2707  0.000e+00
        698    174.250     22.996     9.9035  31.905982     2.5311 1.0117e+00      0.162 1.0843e+01      1.142    93.4637     0.2704  0.000e+00
        699    174.500     23.281     9.8936  31.902194     2.5265 1.3870e+00      0.202 1.0325e+01      1.144    93.4458     0.2712  0.000e+00
        700    174.750     23.553     9.8784  31.899806     2.5214 1.0506e+00      0.145 9.8457e+00      1.141    93.8157     0.2554  0.000e+00
        701    175.000     23.821     9.8602  31.896019     2.5161 9.7734e-01      0.156 9.3949e+00      1.135    93.8075     0.2557  0.000e+00
        702    175.250     24.098     9.8416  31.898820     2.5093 8.4459e-01      0.164 9.1886e+00      1.126    93.8059     0.2558  0.000e+00
        703    175.500     24.355     9.8267  31.897424     2.5045 9.7047e-01      0.299 8.7785e+00      1.112    93.8027     0.2559  0.000e+00
        704    175.750     24.638     9.8124  31.894744     2.4973 7.8279e-01      0.135 8.4029e+00      1.101    93.4849     0.2695  0.000e+00
        705    176.000     24.924     9.7976  31.894455     2.4923 5.9281e-01      0.141 8.0289e+00      1.097    93.4849     0.2695  0.000e+00
        706    176.250     25.217     9.7807  31.891077     2.4858 9.8650e-01      0.143 7.6823e+00      1.101    93.4800     0.2697  0.000e+00
        707    176.500     25.514     9.7615  31.887932     2.4791 6.5461e-01      0.122 7.3283e+00      1.111    94.8211     0.2127  0.000e+00
        708    176.750     25.810     9.7426  31.883737     2.4714 6.0197e-01      0.135 6.9866e+00      1.127    94.8178     0.2129  0.000e+00
        709    177.000     26.102     9.7202  31.878786     2.4643 5.3788e-01      0.128 6.6951e+00      1.144    94.8097     0.2132  0.000e+00
        710    177.250     26.398     9.6956  31.886134     2.4566 5.1728e-01      0.124 6.4123e+00      1.159    94.8129     0.2131  0.000e+00
        711    177.500     26.675     9.6770  31.894065     2.4478 9.7505e-01      0.134 6.1532e+00      1.167    95.0231     0.2042  0.000e+00
        712    177.750     26.947     9.6652  31.887829     2.4400 5.4704e-01      0.128 5.8950e+00      1.163    95.0182     0.2044  0.000e+00
        713    178.000     27.217     9.6551  31.886957     2.4318 9.5674e-01      0.128 5.7833e+00      1.151    95.0182     0.2044  0.000e+00
        714    178.250     27.483     9.6457  31.885734     2.4244 5.4246e-01      0.135 5.5632e+00      1.135    95.3930     0.1887  0.000e+00
        715    178.500     27.756     9.6375  31.881015     2.4142 4.5548e-01      0.139 5.3351e+00      1.118    95.3962     0.1885  0.000e+00
        716    178.750     28.035     9.6284  31.875071     2.4039 4.0055e-01      0.128 5.1244e+00      1.105    95.3995     0.1884  0.000e+00
        717    179.000     28.327     9.6156  31.866098     2.3939 3.9139e-01      0.132 4.9095e+00      1.100    95.3946     0.1886  0.000e+00
        718    179.250     28.617     9.5992  31.862546     2.3841 3.8453e-01      0.132 4.6959e+00      1.103    95.3962     0.1885  0.000e+00
        719    179.500     28.913     9.5849  31.859984     2.3735 4.8066e-01      0.168 4.4906e+00      1.115    95.3979     0.1885  0.000e+00
        720    179.750     29.204     9.5736  31.857830     2.3645 6.3859e-01      0.158 4.3126e+00      1.130    95.3962     0.1885  0.000e+00
        721    180.000     29.490     9.5635  31.855618     2.3558 6.1799e-01      0.164 4.1311e+00      1.143    95.6423     0.1782  0.000e+00
        722    180.250     29.779     9.5525  31.858417     2.3474 5.2644e-01      0.143 3.9528e+00      1.154    95.6407     0.1783  0.000e+00
        723    180.500     30.064     9.5361  31.857021     2.3391 4.3259e-01      0.137 3.7929e+00      1.158    95.6358     0.1785  0.000e+00
        724    180.750     30.342     9.5214  31.854634     2.3314 5.3788e-01      0.151 3.7224e+00      1.156    95.6358     0.1785  0.000e+00
        725    181.000     30.625     9.5106  31.855860     2.3230 7.0039e-01      0.156 3.5723e+00      1.150    95.6456     0.1781  0.000e+00
        726    181.250     30.903     9.5041  31.856211     2.3154 4.6464e-01      0.139 3.4349e+00      1.142    95.6309     0.1787  0.000e+00
        727    181.500     31.184     9.5005  31.860582     2.3069 4.9210e-01      0.137 3.2919e+00      1.134    95.4777     0.1851  0.000e+00
        728    181.750     31.471     9.4970  31.864721     2.2985 1.1696e+00      0.132 3.1512e+00      1.131    95.4745     0.1852  0.000e+00
        729    182.000     31.750     9.4931  31.861576     2.2906 8.2856e-01      0.143 3.0229e+00      1.128    95.4696     0.1855  0.000e+00
        730    182.250     32.024     9.4882  31.857847     2.2826 4.5548e-01      0.238 2.9135e+00      1.124    95.4842     0.1848  0.000e+00
        731    182.500     32.316     9.4821  31.856043     2.2738 5.7679e-01      0.147 2.7870e+00      1.125    95.3751     0.1894  0.000e+00
        732    182.750     32.595     9.4752  31.858025     2.2667 4.8524e-01      0.143 2.6711e+00      1.126    95.3767     0.1893  0.000e+00
        733    183.000     32.882     9.4678  31.860183     2.2591 4.0513e-01      0.151 2.5637e+00      1.128    95.3669     0.1898  0.000e+00
        734    183.250     33.174     9.4607  31.860593     2.2526 4.2573e-01      0.137 2.4762e+00      1.133    95.5445     0.1823  0.000e+00
        735    183.500     33.464     9.4563  31.863566     2.2458 5.4704e-01      0.135 2.4004e+00      1.138    95.5347     0.1827  0.000e+00
        736    183.750     33.748     9.4542  31.865374     2.2397 5.4932e-01      0.139 2.3055e+00      1.141    95.5380     0.1826  0.000e+00
        737    184.000     34.027     9.4515  31.868522     2.2338 4.0970e-01      0.137 2.2057e+00      1.143    95.5429     0.1824  0.000e+00
        738    184.250     34.302     9.4475  31.871495     2.2274 4.3488e-01      0.130 2.1371e+00      1.142    95.6211     0.1791  0.000e+00
        739    184.500     34.582     9.4447  31.875868     2.2227 4.4404e-01      0.153 2.0416e+00      1.136    95.6195     0.1792  0.000e+00
        740    184.750     34.868     9.4433  31.876452     2.2171 4.7608e-01      0.114 1.9564e+00      1.134    95.6130     0.1794  0.000e+00
        741    185.000     35.147     9.4405  31.881815     2.2120 5.4932e-01      0.130 1.8829e+00      1.129    95.8264     0.1705  0.000e+00
        742    185.250     35.435     9.4312  31.894933     2.2073 8.3772e-01      0.109 1.7973e+00      1.126    95.8199     0.1708  0.000e+00
        743    185.500     35.723     9.4208  31.907645     2.2029 4.7150e-01      0.103 1.7424e+00      1.127    95.8134     0.1711  0.000e+00
        744    185.750     36.004     9.4099  31.914644     2.1982 3.8224e-01      0.101 1.6641e+00      1.130    96.1132     0.1586  0.000e+00
        745    186.000     36.283     9.4022  31.917795     2.1951 4.1886e-01      0.093 1.6218e+00      1.132    96.1197     0.1583  0.000e+00
        746    186.250     36.564     9.3962  31.911207     2.1910 4.0513e-01      0.095 1.5600e+00      1.133    96.1165     0.1584  0.000e+00
        747    186.500     36.852     9.3831  31.887422     2.1862 3.7995e-01      0.113 1.4953e+00      1.134    96.1083     0.1588  0.000e+00
        748    186.750     37.140     9.3528  31.851934     2.1825 4.0970e-01      0.132 1.4410e+00      1.135    96.4537     0.1444  0.000e+00
        749    187.000     37.423     9.3053  31.836092     2.1778 3.9826e-01      0.158 1.3859e+00      1.136    96.4472     0.1447  0.000e+00
        750    187.250     37.700     9.2612  31.829515     2.1715 4.2344e-01      0.143 1.3301e+00      1.133    96.4472     0.1447  0.000e+00
        751    187.500     37.981     9.2307  31.828179     2.1650 4.1199e-01      0.149 1.2826e+00      1.132    96.2387     0.1534  0.000e+00
        752    187.750     38.253     9.2117  31.829288     2.1596 4.3030e-01      0.149 1.2266e+00      1.129    96.2419     0.1532  0.000e+00
        753    188.000     38.525     9.1993  31.821427     2.1505 4.3259e-01      0.145 1.1747e+00      1.124    96.2419     0.1532  0.000e+00
        754    188.250     38.799     9.1877  31.819274     2.1424 4.2573e-01      0.147 1.1367e+00      1.116    95.7580     0.1734  0.000e+00
        755    188.500     39.069     9.1788  31.821431     2.1323 4.5777e-01      0.162 1.0837e+00      1.107    95.7629     0.1732  0.000e+00
        756    188.750     39.344     9.1734  31.824403     2.1209 4.6006e-01      0.141 1.0736e+00      1.100    95.7580     0.1734  0.000e+00
        757    189.000     39.627     9.1687  31.827375     2.1093 5.2415e-01      0.139 1.0306e+00      1.098    95.7629     0.1732  0.000e+00
        758    189.250     39.908     9.1614  31.829182     2.0986 4.9439e-01      0.145 9.8597e-01      1.100    95.4940     0.1844  0.000e+00
        759    189.500     40.195     9.1509  31.828077     2.0870 6.4775e-01      0.156 9.4309e-01      1.105    95.4989     0.1842  0.000e+00
        760    189.750     40.481     9.1399  31.828953     2.0769 5.0813e-01      0.166 8.9927e-01      1.113    95.5005     0.1842  0.000e+00
        761    190.000     40.766     9.1304  31.831518     2.0662 5.0355e-01      0.185 8.7788e-01      1.122    95.6227     0.1790  0.000e+00
        762    190.250     41.044     9.1240  31.836879     2.0560 5.0813e-01      0.164 8.4158e-01      1.127    95.6211     0.1791  0.000e+00
        763    190.500     41.323     9.1202  31.856515     2.0468 4.9897e-01      0.166 8.1851e-01      1.131    95.6293     0.1788  0.000e+00
        764    190.750     41.597     9.1149  31.859081     2.0374 4.9210e-01      0.240 7.8022e-01      1.130    95.2447     0.1949  0.000e+00
        765    191.000     41.869     9.1096  31.853721     2.0282 5.5161e-01      0.214 7.4874e-01      1.124    95.2382     0.1952  0.000e+00
        766    191.250     42.149     9.0954  31.853723     2.0198 5.9968e-01      0.214 7.1938e-01      1.118    95.2333     0.1954  0.000e+00
        767    191.500     42.428     9.0779  31.857514     2.0098 6.6606e-01      0.200 7.0481e-01      1.113    95.2398     0.1951  0.000e+00
        768    191.750     42.712     9.0632  31.839454     2.0000 8.5374e-01      0.277 6.7288e-01      1.111    94.9205     0.2085  0.000e+00
        769    192.000     42.995     9.0445  31.842428     1.9906 7.8050e-01      0.204 6.3481e-01      1.112    94.9188     0.2086  0.000e+00
        770    192.250     43.281     9.0272  31.857522     1.9821 9.8421e-01      0.273 6.0355e-01      1.117    94.9188     0.2086  0.000e+00
        771    192.500     43.562     9.0153  31.865216     1.9725 1.2291e+00      0.202 5.8582e-01      1.122    94.6744     0.2189  0.000e+00
        772    192.750     43.841     9.0075  31.868831     1.9624 8.6519e-01      0.214 5.5203e-01      1.126    94.6760     0.2188  0.000e+00
        773    193.000     44.124     9.0035  31.870581     1.9534 1.0002e+00      0.227 5.3303e-01      1.129    94.6874     0.2184  0.000e+00
        774    193.250     44.403     9.0015  31.878975     1.9440 8.3543e-01      0.267 5.1048e-01      1.129    94.6793     0.2187  0.000e+00
        775    193.500     44.683     9.0010  31.885271     1.9342 8.5603e-01      0.217 4.8614e-01      1.127    93.9656     0.2490  0.000e+00
        776    193.750     44.964     9.0009  31.892442     1.9247 1.1604e+00      0.210 4.6278e-01      1.125    93.9672     0.2489  0.000e+00
        777    194.000     45.238     9.0004  31.895999     1.9161 1.0300e+00      0.221 4.4675e-01      1.122    93.9738     0.2486  0.000e+00
        778    194.250     45.511     9.0002  31.896991     1.9072 9.3385e-01      0.196 4.3212e-01      1.117    94.3387     0.2331  0.000e+00
        779    194.500     45.794     9.0000  31.900548     1.8981 8.3085e-01      0.546 4.1761e-01      1.115    94.3241     0.2337  0.000e+00
        780    194.750     46.066     9.0001  31.904747     1.8903 8.0797e-01      0.240 3.8486e-01      1.112    94.3387     0.2331  0.000e+00
        781    195.000     46.356     9.0003  31.906905     1.8817 8.0797e-01      0.198 3.6470e-01      1.112    94.3306     0.2335  0.000e+00
        782    195.250     46.640     9.0008  31.909063     1.8745 7.5761e-01      0.206 3.5667e-01      1.115    94.3257     0.2337  0.000e+00
        783    195.500     46.930     9.0014  31.910872     1.8681 8.0339e-01      0.216 3.4163e-01      1.121    94.3224     0.2338  0.000e+00
        784    195.750     47.219     9.0019  31.913846     1.8618 7.0954e-01      0.216 3.2192e-01      1.128    94.3208     0.2339  0.000e+00
        785    196.000     47.494     9.0024  31.918629     1.8564 6.9581e-01      0.244 3.0445e-01      1.133    94.5392     0.2246  0.000e+00
        786    196.250     47.773     9.0032  31.923587     1.8510 7.7134e-01      0.196 2.9209e-01      1.135    94.5522     0.2241  0.000e+00
        787    196.500     48.047     9.0046  31.928195     1.8463 9.7963e-01      0.227 2.7618e-01      1.132    94.5343     0.2248  0.000e+00
        788    196.750     48.321     9.0067  31.935544     1.8427 8.4459e-01      0.240 2.6507e-01      1.128    94.4137     0.2299  0.000e+00
        789    197.000     48.595     9.0102  31.934145     1.8386 7.5532e-01      0.223 2.5793e-01      1.119    94.4056     0.2303  0.000e+00
        790    197.250     48.870     9.0122  31.936712     1.8354 7.7134e-01      0.225 2.3709e-01      1.112    94.4121     0.2300  0.000e+00
        791    197.500     49.149     9.0135  31.943596     1.8322 7.6219e-01      0.189 2.2610e-01      1.105    94.1856     0.2396  0.000e+00
        792    197.750     49.435     9.0170  31.957014     1.8294 7.8508e-01      0.237 2.2684e-01      1.105    94.1888     0.2395  0.000e+00
        793    198.000     49.710     9.0242  31.971134     1.8267 6.6606e-01      0.185 2.1707e-01      1.107    94.1888     0.2395  0.000e+00
        794    198.250     50.000     9.0306  31.970959     1.8251 6.6606e-01      0.204 1.9914e-01      1.112    94.1921     0.2393  0.000e+00
        795    198.500     50.284     9.0300  31.988876     1.8231 8.2170e-01      0.183 1.9292e-01      1.119    94.4495     0.2284  0.000e+00
        796    198.750     50.569     9.0283  31.993255     1.8211 7.1183e-01      0.189 1.8301e-01      1.125    94.4398     0.2288  0.000e+00
        797    199.000     50.857     9.0272  31.994015     1.8195 6.8437e-01      0.185 1.7845e-01      1.132    94.4333     0.2291  0.000e+00
        798    199.250     51.142     9.0260  31.996234     1.8183 6.3630e-01      0.210 1.5914e-01      1.137    94.8536     0.2113  0.000e+00
        799    199.500     51.419     9.0253  31.996410     1.8170 7.4617e-01      0.193 1.4377e-01      1.138    94.8520     0.2114  0.000e+00
        800    199.750     51.687     9.0253  31.998454     1.8169 6.3630e-01      0.187 1.5241e-01      1.133    94.8488     0.2115  0.000e+00
        801    200.000     51.964     9.0259  31.999038     1.8173 6.3630e-01      0.189 1.4339e-01      1.128    94.8504     0.2115  0.000e+00
        802    200.250     52.245     9.0261  31.997872     1.8139 8.1254e-01      0.187 1.2842e-01      1.121    94.9156     0.2087  0.000e+00
        803    200.500     52.519     9.0238  31.998048     1.8134 7.7592e-01      0.191 1.2434e-01      1.115    94.9156     0.2087  0.000e+00
        804    200.750     52.797     9.0213  32.011592     1.8127 6.7750e-01      0.168 1.1890e-01      1.110    94.9172     0.2087  0.000e+00
        805    201.000     53.084     9.0220  32.011009     1.8109 5.7679e-01      0.181 1.1099e-01      1.109    95.0329     0.2038  0.000e+00
        806    201.250     53.372     9.0201  32.003830     1.8094 5.3330e-01      0.156 1.0854e-01      1.113    95.0296     0.2039  0.000e+00
        807    201.500     53.653     9.0133  31.994842     1.8087 1.6663e+00      0.170 1.0244e-01      1.119    95.0345     0.2037  0.000e+00
        808    201.750     53.923     9.0024  31.986673     1.8068 7.8508e-01      0.175 9.6510e-02      1.122    95.1991     0.1968  0.000e+00
        809    202.000     54.204     8.9906  31.984690     1.8054 6.6606e-01      0.202 8.9678e-02      1.122    95.1942     0.1970  0.000e+00
        810    202.250     54.474     8.9812  31.984284     1.8035 6.4546e-01      0.237 8.2627e-02      1.119    95.1926     0.1971  0.000e+00
        811    202.500     54.748     8.9742  31.984519     1.8022 7.5990e-01      0.244 8.2563e-02      1.116    95.1893     0.1972  0.000e+00
        812    202.750     55.021     8.9692  31.984695     1.8013 6.7063e-01      0.280 6.9959e-02      1.110    95.2219     0.1958  0.000e+00
        813    203.000     55.286     8.9654  31.983821     1.7989 7.3472e-01      0.250 5.7212e-02      1.100    95.2154     0.1961  0.000e+00
        814    203.250     55.558     8.9627  31.982304     1.7964 7.1183e-01      0.294 5.2627e-02      1.092    95.2137     0.1962  0.000e+00
        815    203.500     55.828     8.9601  31.982130     1.7929 9.1783e-01      0.271 5.8837e-02      1.088    94.5978     0.2221  0.000e+00
        816    203.750     56.110     8.9579  31.982540     1.7901 7.6905e-01      0.282 5.6490e-02      1.088    94.5913     0.2224  0.000e+00
        817    204.000     56.395     8.9551  31.980499     1.7858 7.5532e-01      0.248 4.1822e-02      1.091    94.6043     0.2219  0.000e+00
        818    204.250     56.696     8.9507  31.977757     1.7820 8.4001e-01      0.259 3.7730e-02      1.103    94.0373     0.2459  0.000e+00
        819    204.500     56.990     8.9456  31.977759     1.7764 7.3930e-01      0.259 3.7632e-02      1.117    94.0422     0.2457  0.000e+00
        820    204.750     57.273     8.9404  31.974959     1.7725 8.4001e-01      0.250 3.4589e-02      1.131    94.0389     0.2458  0.000e+00
        821    205.000     57.562     8.9349  31.976127     1.7681 8.1712e-01      0.244 2.4562e-02      1.144    94.0308     0.2462  0.000e+00
        822    205.250     57.833     8.9309  31.976771     1.7638 7.9881e-01      0.271 2.0298e-02      1.149    93.6397     0.2629  0.000e+00
        823    205.500     58.108     8.9281  31.978406     1.7603 8.1025e-01      0.402 1.3767e-02      1.147    93.6430     0.2627  0.000e+00
        824    205.750     58.385     8.9260  31.980158     1.7555 8.6061e-01      0.311 1.3706e-02      1.139    93.6430     0.2627  0.000e+00
        825    206.000     58.660     8.9242  31.981909     1.7519 8.1483e-01      0.307 1.5973e-02      1.128    93.6511     0.2624  0.000e+00
        826    206.250     58.947     8.9229  31.985937     1.7475 8.7663e-01      0.275 1.5253e-02      1.119    93.6658     0.2617  0.000e+00
        827    206.500     59.228     8.9212  31.993701     1.7429 8.8808e-01      0.292 8.2006e-03      1.114    93.6593     0.2620  0.000e+00
        828    206.750     59.512     8.9199  31.997671     1.7399 8.9723e-01      0.320 1.6828e-03      1.115    93.3073     0.2771  0.000e+00
        829    207.000     59.795     8.9197  32.001466     1.7356 9.2012e-01      0.383 1.0689e-03      1.118    93.3073     0.2771  0.000e+00
        830    207.250     60.072     8.9198  32.008239     1.7308 8.6519e-01      0.324 5.3031e-04      1.122    93.3089     0.2770  0.000e+00
        831    207.500     60.346     8.9204  32.016413     1.7272 8.1483e-01      0.345 4.7976e-05      1.123    93.3106     0.2769  0.000e+00
        832    207.750     60.625     8.9221  32.017815     1.7230 8.7892e-01      0.320 1.0146e-04      1.122    92.9765     0.2913  0.000e+00
        833    208.000     60.904     8.9235  32.019567     1.7188 8.8121e-01      0.322 3.0156e-05      1.121    92.9831     0.2910  0.000e+00
        834    208.250     61.187     8.9247  32.023480     1.7151 8.2856e-01      0.370 4.7976e-05      1.118    92.9716     0.2915  0.000e+00
        835    208.500     61.468     8.9263  32.027393     1.7121 8.6748e-01      0.448 3.0156e-05      1.117    92.9114     0.2941  0.000e+00
        836    208.750     61.757     8.9270  32.042753     1.7090 9.5216e-01      0.473 1.1929e-04      1.119    92.9228     0.2936  0.000e+00
        837    209.000     62.038     8.9249  32.048302     1.7063 9.8192e-01      0.427 1.0146e-04      1.122    92.9260     0.2935  0.000e+00
        838    209.250     62.326     8.9206  32.059694     1.7033 9.7505e-01      0.383 1.0000e-12      1.128    92.9228     0.2936  0.000e+00
        839    209.500     62.599     8.9127  32.062324     1.7011 8.9952e-01      0.443 4.7976e-05      1.130    92.2433     0.3230  0.000e+00
        840    209.750     62.880     8.9019  32.070505     1.6986 9.9336e-01      0.574 4.7976e-05      1.130    92.2384     0.3232  0.000e+00
        841    210.000     63.113     8.8904  32.075473     1.6969 1.4282e+00      0.656 1.0146e-04      1.117    92.2270     0.3237  0.000e+00
        842    210.250     63.297     8.8820  32.081259     1.6946 1.3916e+00      0.557 6.5800e-05      1.079    91.6860     0.3472  0.000e+00
        843    210.500     63.423     8.8760  32.083305     1.6911 1.4237e+00      0.637 1.0146e-04      1.010    91.6958     0.3468  0.000e+00
        844    210.750     63.495     8.8718  32.084299     1.6880 1.4672e+00      0.635 1.0146e-04      0.904    91.6942     0.3468  0.000e+00
        845    211.000     63.515     8.8689  32.084300     1.6835 1.3916e+00      0.526 1.3712e-04      0.765    90.3059     0.4079  0.000e+00
        846    211.250     63.501     8.8676  32.082079     1.6790 1.2840e+00      0.530 4.7976e-05      0.599    90.2977     0.4082  0.000e+00
        847    211.500     63.467     8.8696  32.071445     1.6732 1.4763e+00      0.523 8.3626e-05      0.422    90.3026     0.4080  0.000e+00
        848    211.750     63.438     8.8768  32.070510     1.6674 1.3321e+00      0.469 1.2339e-05      0.253    90.2961     0.4083  0.000e+00
        849    212.000     63.408     8.8836  32.067471     1.6619 1.4191e+00      0.568 6.5800e-05      0.113    91.1532     0.3705  0.000e+00
        850    212.250     63.386     8.8888  32.065075     1.6563 1.1559e+00      0.515 1.3712e-04      0.010    91.1451     0.3709  0.000e+00
        851    212.500     63.380     8.8928  32.065483     1.6500 1.0254e+00      0.458 8.3626e-05     -0.052    91.1548     0.3704  0.000e+00
        852    212.750     63.375     8.8948  32.065074     1.6442 1.1742e+00      0.477 1.0000e-12     -0.078    91.1239     0.3718  0.000e+00
        853    213.000     63.371     8.8961  32.062913     1.6397 1.2337e+00      0.448 1.2339e-05     -0.079    91.1157     0.3722  0.000e+00
        854    213.250     63.368     8.8973  32.063088     1.6359 1.8952e+00      0.448 4.7976e-05     -0.065    91.1157     0.3722  0.000e+00
        855    213.500     63.360     8.8975  32.059700     1.6326 1.3436e+00      0.416 1.2339e-05     -0.048    91.4416     0.3579  0.000e+00
        856    213.750     63.346     8.8982  32.055727     1.6295 1.4008e+00      0.402 1.2339e-05     -0.037    91.4432     0.3578  0.000e+00
        857    214.000     63.311     8.9000  32.056311     1.6285 1.2886e+00      0.471 3.0156e-05     -0.037    91.4432     0.3578  0.000e+00
        858    214.250     63.228     8.9013  32.056720     1.6272 1.0254e+00      0.492 6.5800e-05     -0.060    91.4481     0.3576  0.000e+00
        859    214.500     63.087     8.9012  32.057887     1.6260 1.0780e+00      0.408 1.0000e-12     -0.117    91.5149     0.3547  0.000e+00
        860    214.750     62.896     8.9020  32.054791     1.6265 1.1398e+00      0.395 1.1929e-04     -0.207    91.5182     0.3545  0.000e+00
        861    215.000     62.669     8.9050  32.056133     1.6261 1.0437e+00      0.414 1.5496e-04     -0.326    91.5084     0.3550  0.000e+00
        862    215.250     62.412     8.9069  32.048714     1.6264 1.0185e+00      0.437 1.0146e-04     -0.468    91.4237     0.3587  0.000e+00
        863    215.500     62.141     8.9090  32.046903     1.6273 9.7505e-01      0.431 6.5800e-05     -0.620    91.4090     0.3593  0.000e+00
        864    215.750     61.862     8.9117  32.046142     1.6273 9.7276e-01      0.418 3.0156e-05     -0.767    91.4302     0.3584  0.000e+00
        865    216.000     61.570     8.9137  32.043104     1.6282 9.3385e-01      0.423 4.7976e-05     -0.896    91.4612     0.3570  0.000e+00
        866    216.250     61.282     8.9157  32.040708     1.6285 9.7047e-01      0.536 6.5800e-05     -0.995    91.5931     0.3513  0.000e+00
        867    216.500     61.004     8.9173  32.039364     1.6295 1.0964e+00      0.393 1.3712e-04     -1.061    91.6046     0.3508  0.000e+00
        868    216.750     60.728     8.9181  32.040531     1.6305 9.9565e-01      0.366 1.0146e-04     -1.100    91.5997     0.3510  0.000e+00
        869    217.000     60.466     8.9184  32.039538     1.6316 9.0867e-01      0.345 2.3550e-03     -1.114    92.2188     0.3240  0.000e+00
        870    217.250     60.206     8.9186  32.035332     1.6332 9.9565e-01      0.332 1.0146e-04     -1.112    92.2205     0.3240  0.000e+00
        871    217.500     59.949     8.9193  32.033170     1.6343 9.6818e-01      0.355 5.4822e-04     -1.100    92.2172     0.3241  0.000e+00
        872    217.750     59.696     8.9201  32.031710     1.6364 9.2699e-01      0.334 1.1950e-03     -1.081    92.6946     0.3034  0.000e+00
        873    218.000     59.452     8.9209  32.028555     1.6375 9.2927e-01      0.332 5.9709e-03     -1.058    92.7044     0.3030  0.000e+00
        874    218.250     59.198     8.9216  32.026160     1.6392 9.2241e-01      0.322 7.6820e-03     -1.038    92.7044     0.3030  0.000e+00
        875    218.500     58.947     8.9223  32.019970     1.6407 9.5674e-01      0.313 1.2720e-02     -1.024    92.6930     0.3035  0.000e+00
        876    218.750     58.692     8.9228  32.016174     1.6427 9.2927e-01      0.324 1.2100e-02     -1.014    92.9179     0.2938  0.000e+00
        877    219.000     58.433     8.9236  32.017166     1.6447 9.0410e-01      0.311 2.0127e-02     -1.012    92.9228     0.2936  0.000e+00
        878    219.250     58.161     8.9240  32.008817     1.6465 9.4759e-01      0.290 2.2238e-02     -1.016    92.9179     0.2938  0.000e+00
        879    219.500     57.889     8.9248  32.007648     1.6493 9.5216e-01      0.294 2.4783e-02     -1.026    93.0124     0.2898  0.000e+00
        880    219.750     57.615     8.9256  32.006596     1.6501 9.2241e-01      0.284 2.5673e-02     -1.040    93.0108     0.2898  0.000e+00
        881    220.000     57.341     8.9265  32.002859     1.6518 9.2241e-01      0.284 2.7177e-02     -1.056    93.0124     0.2898  0.000e+00
        882    220.250     57.077     8.9272  32.001224     1.6542 9.4301e-01      0.275 4.0445e-02     -1.067    93.4914     0.2692  0.000e+00
        883    220.500     56.824     8.9273  31.997662     1.6551 9.8650e-01      0.288 4.3926e-02     -1.071    93.4947     0.2691  0.000e+00
        884    220.750     56.586     8.9273  31.993692     1.6570 1.0323e+00      0.259 4.1596e-02     -1.065    93.4735     0.2700  0.000e+00
        885    221.000     56.340     8.9274  31.991882     1.6593 9.2241e-01      0.269 5.1038e-02     -1.051    93.4947     0.2691  0.000e+00
        886    221.250     56.098     8.9274  31.989313     1.6615 9.0410e-01      0.248 5.0851e-02     -1.032    93.7473     0.2583  0.000e+00
        887    221.500     55.839     8.9281  31.986511     1.6626 8.3543e-01      0.252 5.6212e-02     -1.016    93.7489     0.2582  0.000e+00
        888    221.750     55.573     8.9298  31.983300     1.6639 9.0181e-01      0.271 5.5881e-02     -1.008    93.7456     0.2583  0.000e+00
        889    222.000     55.299     8.9330  31.982132     1.6656 7.7592e-01      0.267 6.2049e-02     -1.009    93.8157     0.2554  0.000e+00
        890    222.250     55.020     8.9364  31.981722     1.6681 8.7434e-01      0.265 7.7810e-02     -1.022    93.8190     0.2552  0.000e+00
        891    222.500     54.750     8.9409  31.982888     1.6706 9.2470e-01      0.275 7.7181e-02     -1.040    93.8287     0.2548  0.000e+00
        892    222.750     54.489     8.9442  31.982887     1.6709 8.5374e-01      0.244 7.6118e-02     -1.057    93.9640     0.2490  0.000e+00
        893    223.000     54.234     8.9468  31.982536     1.6722 8.7434e-01      0.252 8.3145e-02     -1.066    93.9558     0.2494  0.000e+00
        894    223.250     53.987     8.9484  31.982768     1.6744 7.9881e-01      0.238 9.2518e-02     -1.065    93.9558     0.2494  0.000e+00
        895    223.500     53.741     8.9500  31.982125     1.6757 8.1025e-01      0.193 9.5401e-02     -1.054    93.9607     0.2492  0.000e+00
        896    223.750     53.493     8.9520  31.981891     1.6778 9.2927e-01      0.196 9.8397e-02     -1.038    94.3436     0.2329  0.000e+00
        897    224.000     53.234     8.9535  31.981715     1.6812 7.2099e-01      0.231 1.0301e-01     -1.024    94.3485     0.2327  0.000e+00
        898    224.250     52.964     8.9553  31.981889     1.6829 7.3014e-01      0.196 1.0851e-01     -1.017    94.3436     0.2329  0.000e+00
        899    224.500     52.699     8.9586  31.983113     1.6857 6.7063e-01      0.217 1.1476e-01     -1.018    95.0329     0.2038  0.000e+00
        900    224.750     52.433     8.9624  31.984863     1.6882 6.3630e-01      0.202 1.2992e-01     -1.025    95.0247     0.2041  0.000e+00
        901    225.000     52.167     8.9651  31.985095     1.6903 6.6606e-01      0.198 1.4061e-01     -1.036    95.0345     0.2037  0.000e+00
        902    225.250     51.906     8.9663  31.984861     1.6930 6.9581e-01      0.198 1.4027e-01     -1.047    95.0215     0.2043  0.000e+00
        903    225.500     51.642     8.9676  31.988245     1.6955 7.0726e-01      0.191 1.5659e-01     -1.055    95.1486     0.1989  0.000e+00
        904    225.750     51.378     8.9731  31.992037     1.6986 6.8208e-01      0.189 1.6841e-01     -1.059    95.1486     0.1989  0.000e+00
        905    226.000     51.118     8.9816  31.991686     1.7027 7.7134e-01      0.200 1.7007e-01     -1.057    95.1600     0.1984  0.000e+00
        906    226.250     50.861     8.9866  31.992676     1.7045 7.1183e-01      0.210 1.8236e-01     -1.052    95.0850     0.2016  0.000e+00
        907    226.500     50.602     8.9912  31.993259     1.7071 6.8208e-01      0.187 1.9256e-01     -1.048    95.0834     0.2017  0.000e+00
        908    226.750     50.360     8.9952  31.993433     1.7095 7.1641e-01      0.193 1.8988e-01     -1.040    95.0834     0.2017  0.000e+00
        909    227.000     50.112     8.9994  31.993023     1.7131 7.0726e-01      0.187 2.1263e-01     -1.030    95.0361     0.2037  0.000e+00
        910    227.250     49.871     9.0036  31.993255     1.7163 6.7063e-01      0.200 2.1147e-01     -1.019    95.0361     0.2037  0.000e+00
        911    227.500     49.605     9.0069  31.992846     1.7195 6.9352e-01      0.185 2.2592e-01     -1.012    95.0345     0.2037  0.000e+00
        912    227.750     49.337     9.0102  31.992261     1.7230 7.5532e-01      0.181 2.3799e-01     -1.012    95.0361     0.2037  0.000e+00
        913    228.000     49.058     9.0126  31.991851     1.7265 7.6448e-01      0.200 2.4895e-01     -1.020    95.0280     0.2040  0.000e+00
        914    228.250     48.786     9.0144  31.988873     1.7300 7.4617e-01      0.198 2.6142e-01     -1.032    95.0296     0.2039  0.000e+00
        915    228.500     48.518     9.0165  31.987238     1.7340 7.3472e-01      0.219 2.7071e-01     -1.047    95.0378     0.2036  0.000e+00
        916    228.750     48.263     9.0183  31.985253     1.7386 7.8279e-01      0.221 2.8714e-01     -1.059    94.8422     0.2118  0.000e+00
        917    229.000     48.014     9.0200  31.980875     1.7409 8.0110e-01      0.280 3.0189e-01     -1.063    94.8341     0.2122  0.000e+00
        918    229.250     47.771     9.0217  31.978306     1.7444 7.3243e-01      0.227 3.0623e-01     -1.057    94.8406     0.2119  0.000e+00
        919    229.500     47.522     9.0233  31.972703     1.7478 7.1641e-01      0.219 3.1653e-01     -1.043    94.5766     0.2230  0.000e+00
        920    229.750     47.261     9.0242  31.960565     1.7498 7.8965e-01      0.189 3.3094e-01     -1.030    94.5734     0.2232  0.000e+00
        921    230.000     47.004     9.0237  31.950413     1.7530 8.1025e-01      0.214 3.5659e-01     -1.018    94.5734     0.2232  0.000e+00
        922    230.250     46.734     9.0224  31.946854     1.7566 8.3543e-01      0.206 3.6931e-01     -1.016    94.5701     0.2233  0.000e+00
        923    230.500     46.466     9.0210  31.945278     1.7586 9.0410e-01      0.183 3.8461e-01     -1.022    94.5310     0.2250  0.000e+00
        924    230.750     46.203     9.0200  31.942069     1.7615 8.4001e-01      0.210 4.0393e-01     -1.032    94.5343     0.2248  0.000e+00
        925    231.000     45.946     9.0188  31.938919     1.7642 8.6290e-01      0.216 4.1633e-01     -1.041    94.5278     0.2251  0.000e+00
        926    231.250     45.686     9.0178  31.935302     1.7676 8.1483e-01      0.191 4.2839e-01     -1.048    94.6060     0.2218  0.000e+00
        927    231.500     45.429     9.0163  31.920604     1.7699 8.1483e-01      0.227 4.5286e-01     -1.050    94.6060     0.2218  0.000e+00
        928    231.750     45.164     9.0135  31.918621     1.7726 8.5374e-01      0.246 4.7318e-01     -1.049    94.6027     0.2219  0.000e+00
        929    232.000     44.905     9.0111  31.918037     1.7746 8.4001e-01      0.231 4.9185e-01     -1.047    94.1025     0.2431  0.000e+00
        930    232.250     44.650     9.0103  31.919319     1.7778 9.2241e-01      0.250 5.0951e-01     -1.041    94.1057     0.2430  0.000e+00
        931    232.500     44.391     9.0101  31.920018     1.7787 8.9494e-01      0.231 5.2858e-01     -1.038    94.0992     0.2433  0.000e+00
        932    232.750     44.138     9.0102  31.915469     1.7807 1.1856e+00      0.246 5.4495e-01     -1.035    94.1123     0.2427  0.000e+00
        933    233.000     43.887     9.0096  31.906488     1.7832 8.6519e-01      0.214 5.6724e-01     -1.031    93.9346     0.2503  0.000e+00
        934    233.250     43.629     9.0081  31.896984     1.7834 8.8121e-01      0.237 5.9079e-01     -1.028    93.9346     0.2503  0.000e+00
        935    233.500     43.363     9.0062  31.896984     1.7848 9.0410e-01      0.248 6.1642e-01     -1.028    93.9379     0.2501  0.000e+00
        936    233.750     43.097     9.0052  31.896808     1.7860 9.3843e-01      0.221 6.3948e-01     -1.029    94.1758     0.2400  0.000e+00
        937    234.000     42.825     9.0046  31.893834     1.7870 8.8121e-01      0.250 6.7766e-01     -1.036    94.1742     0.2401  0.000e+00
        938    234.250     42.555     9.0044  31.888995     1.7887 8.6976e-01      0.210 7.1149e-01     -1.045    94.1823     0.2398  0.000e+00
        939    234.500     42.301     9.0037  31.882698     1.7886 9.0639e-01      0.217 7.4056e-01     -1.051    94.1677     0.2404  0.000e+00
        940    234.750     42.048     9.0033  31.879142     1.7894 1.0163e+00      0.214 7.4903e-01     -1.054    94.2866     0.2353  0.000e+00
        941    235.000     41.797     9.0032  31.871797     1.7905 8.9952e-01      0.231 7.7405e-01     -1.051    94.2785     0.2357  0.000e+00
        942    235.250     41.549     9.0032  31.872787     1.7916 8.9952e-01      0.225 8.0535e-01     -1.043    94.2850     0.2354  0.000e+00
        943    235.500     41.296     9.0033  31.865035     1.7929 8.4916e-01      0.196 8.2500e-01     -1.032    94.4919     0.2266  0.000e+00
        944    235.750     41.037     9.0069  31.858507     1.7932 8.4001e-01      0.177 8.4973e-01     -1.023    94.4968     0.2264  0.000e+00
        945    236.000     40.781     9.0122  31.859905     1.7939 9.2012e-01      0.174 8.9506e-01     -1.016    94.4952     0.2265  0.000e+00
        946    236.250     40.513     9.0161  31.858330     1.7941 8.3085e-01      0.238 9.2563e-01     -1.017    93.8336     0.2546  0.000e+00
        947    236.500     40.247     9.0199  31.854716     1.7953 7.2786e-01      0.196 9.6647e-01     -1.024    93.8287     0.2548  0.000e+00
        948    236.750     39.975     9.0252  31.853316     1.7959 6.8894e-01      0.170 9.9962e-01     -1.035    93.8255     0.2549  0.000e+00
        949    237.000     39.707     9.0297  31.849353     1.7964 6.3859e-01      0.162 1.0511e+00     -1.047    93.8222     0.2551  0.000e+00
        950    237.250     39.446     9.0373  31.843641     1.7975 6.2943e-01      0.160 1.0910e+00     -1.056    94.7999     0.2136  0.000e+00
        951    237.500     39.196     9.0487  31.839445     1.7995 6.1799e-01      0.149 1.1147e+00     -1.057    94.8064     0.2133  0.000e+00
        952    237.750     38.948     9.0597  31.836297     1.8006 5.9052e-01      0.154 1.1518e+00     -1.052    94.7917     0.2140  0.000e+00
        953    238.000     38.708     9.0697  31.838684     1.8034 6.0655e-01      0.221 1.1959e+00     -1.041    95.4305     0.1871  0.000e+00
        954    238.250     38.455     9.0750  31.832449     1.8058 7.0039e-01      0.200 1.2346e+00     -1.028    95.4272     0.1872  0.000e+00
        955    238.500     38.196     9.0829  31.828544     1.8074 6.5919e-01      0.170 1.2772e+00     -1.017    95.4354     0.1869  0.000e+00
        956    238.750     37.928     9.0940  31.821436     1.8110 5.7679e-01      0.168 1.3369e+00     -1.013    95.5233     0.1832  0.000e+00
        957    239.000     37.660     9.1076  31.823589     1.8158 5.5619e-01      0.154 1.3802e+00     -1.015    95.5185     0.1834  0.000e+00
        958    239.250     37.391     9.1154  31.823995     1.8191 5.0584e-01      0.160 1.4375e+00     -1.025    95.5217     0.1833  0.000e+00
        959    239.500     37.118     9.1199  31.822421     1.8238 5.5619e-01      0.149 1.4861e+00     -1.040    95.5119     0.1837  0.000e+00
        960    239.750     36.855     9.1259  31.821022     1.8285 5.0813e-01      0.141 1.5452e+00     -1.054    95.8346     0.1702  0.000e+00
        961    240.000     36.599     9.1358  31.820962     1.8353 5.2873e-01      0.130 1.5856e+00     -1.062    95.8346     0.1702  0.000e+00
        962    240.250     36.349     9.1453  31.822416     1.8414 5.4475e-01      0.128 1.6331e+00     -1.060    95.8460     0.1697  0.000e+00
        963    240.500     36.103     9.1547  31.828763     1.8479 4.9210e-01      0.118 1.7008e+00     -1.051    96.1735     0.1561  0.000e+00
        964    240.750     35.859     9.1695  31.836684     1.8545 5.5619e-01      0.118 1.7564e+00     -1.037    96.1751     0.1560  0.000e+00
        965    241.000     35.598     9.1888  31.841400     1.8610 5.1728e-01      0.116 1.8252e+00     -1.026    96.1735     0.1561  0.000e+00
        966    241.250     35.332     9.2062  31.853691     1.8679 5.4246e-01      0.107 1.8899e+00     -1.019    96.2419     0.1532  0.000e+00
        967    241.500     35.066     9.2267  31.856485     1.8745 5.6764e-01      0.107 1.9589e+00     -1.018    96.4342     0.1452  0.000e+00
        968    241.750     34.799     9.2443  31.850947     1.8819 5.3330e-01      0.118 2.0507e+00     -1.024    96.4212     0.1458  0.000e+00
        969    242.000     34.529     9.2499  31.856073     1.8887 4.9897e-01      0.124 2.1359e+00     -1.036    96.4260     0.1456  0.000e+00
        970    242.250     34.263     9.2562  31.859044     1.8965 4.9210e-01      0.124 2.2130e+00     -1.048    96.0024     0.1632  0.000e+00
        971    242.500     34.008     9.2736  31.861430     1.9068 5.7908e-01      0.120 2.2924e+00     -1.056    96.0024     0.1632  0.000e+00
        972    242.750     33.762     9.2950  31.862010     1.9140 5.6764e-01      0.135 2.3391e+00     -1.055    96.0089     0.1629  0.000e+00
        973    243.000     33.514     9.3082  31.863815     1.9232 5.5390e-01      0.135 2.4211e+00     -1.046    95.9991     0.1633  0.000e+00
        974    243.250     33.257     9.3250  31.863404     1.9327 5.2415e-01      0.149 2.5164e+00     -1.037    95.9991     0.1633  0.000e+00
        975    243.500     32.996     9.3431  31.862411     1.9406 7.7592e-01      0.154 2.6128e+00     -1.029    95.9894     0.1637  0.000e+00
        976    243.750     32.735     9.3567  31.862642     1.9503 4.8524e-01      0.139 2.7178e+00     -1.024    95.9942     0.1635  0.000e+00
        977    244.000     32.473     9.3675  31.862174     1.9583 4.6235e-01      0.151 2.8217e+00     -1.022    95.9014     0.1674  0.000e+00
        978    244.250     32.206     9.3761  31.859608     1.9673 5.0355e-01      0.143 2.9433e+00     -1.027    95.9160     0.1668  0.000e+00
        979    244.500     31.940     9.3850  31.857858     1.9768 4.4862e-01      0.164 3.0638e+00     -1.036    95.9030     0.1673  0.000e+00
        980    244.750     31.681     9.3948  31.854884     1.9860 4.5319e-01      0.162 3.1787e+00     -1.045    95.6602     0.1775  0.000e+00
        981    245.000     31.415     9.4044  31.854067     1.9959 4.8981e-01      0.185 3.3038e+00     -1.051    95.6537     0.1777  0.000e+00
        982    245.250     31.154     9.4127  31.854473     2.0056 5.0813e-01      0.170 3.4312e+00     -1.053    95.6553     0.1777  0.000e+00
        983    245.500     30.901     9.4187  31.855054     2.0153 5.2644e-01      0.160 3.4906e+00     -1.051    95.2789     0.1934  0.000e+00
        984    245.750     30.651     9.4229  31.853655     2.0249 5.0584e-01      0.168 3.6125e+00     -1.045    95.2675     0.1939  0.000e+00
        985    246.000     30.401     9.4284  31.852663     2.0343 5.0355e-01      0.160 3.7494e+00     -1.037    95.2789     0.1934  0.000e+00
        986    246.250     30.151     9.4368  31.851670     2.0438 5.6489e+00      0.143 3.8829e+00     -1.027    95.2773     0.1935  0.000e+00
        987    246.500     29.889     9.4447  31.849921     2.0530 8.9265e-01      0.143 4.0341e+00     -1.022    95.3979     0.1885  0.000e+00
        988    246.750     29.626     9.4517  31.848288     2.0604 5.2873e-01      0.132 4.2213e+00     -1.021    95.4093     0.1880  0.000e+00
        989    247.000     29.351     9.4586  31.847704     2.0694 5.3330e-01      0.149 4.3837e+00     -1.024    95.3995     0.1884  0.000e+00
        990    247.250     29.082     9.4627  31.848110     2.0761 5.3788e-01      0.175 4.5711e+00     -1.034    95.0003     0.2052  0.000e+00
        991    247.500     28.818     9.4647  31.847818     2.0827 5.1728e-01      0.166 4.7578e+00     -1.044    94.9921     0.2055  0.000e+00
        992    247.750     28.566     9.4668  31.847118     2.0906 5.0355e-01      0.172 4.9201e+00     -1.051    95.0003     0.2052  0.000e+00
        993    248.000     28.311     9.4694  31.846301     2.0967 4.7837e-01      0.168 5.0905e+00     -1.053    95.4125     0.1878  0.000e+00
        994    248.250     28.061     9.4751  31.845542     2.1002 4.6921e-01      0.151 5.1974e+00     -1.050    95.4272     0.1872  0.000e+00
        995    248.500     27.799     9.4833  31.845541     2.1084 5.4475e-01      0.139 5.4139e+00     -1.043    95.4093     0.1880  0.000e+00
        996    248.750     27.525     9.4902  31.845131     2.1144 5.8366e-01      0.143 5.6293e+00     -1.040    95.4272     0.1872  0.000e+00
        997    249.000     27.262     9.4992  31.845712     2.1189 5.1270e-01      0.147 5.8645e+00     -1.038    95.6439     0.1782  0.000e+00
        998    249.250     26.994     9.5052  31.846119     2.1228 4.8066e-01      0.158 6.1007e+00     -1.041    95.6407     0.1783  0.000e+00
        999    249.500     26.739     9.5075  31.846525     2.1272 4.6006e-01      0.160 6.3360e+00     -1.044    95.6504     0.1779  0.000e+00
       1000    249.750     26.496     9.5120  31.850661     2.1330 5.0813e-01      0.175 6.5791e+00     -1.044    95.4174     0.1876  0.000e+00
       1001    250.000     26.241     9.5250  31.852873     2.1373 2.2843e+00      0.158 6.8278e+00     -1.042    95.4158     0.1877  0.000e+00
       1002    250.250     25.986     9.5382  31.855027     2.1431 6.7292e-01      0.149 7.1008e+00     -1.037    95.4207     0.1875  0.000e+00
       1003    250.500     25.715     9.5497  31.859570     2.1491 4.8295e-01      0.162 7.4044e+00     -1.033    95.4174     0.1876  0.000e+00
       1004    250.750     25.445     9.5643  31.860558     2.1543 4.8981e-01      0.153 7.7166e+00     -1.032    95.6586     0.1775  0.000e+00
       1005    251.000     25.173     9.5765  31.858575     2.1605 4.8295e-01      0.143 7.9141e+00     -1.038    95.6537     0.1777  0.000e+00
       1006    251.250     24.901     9.5813  31.858574     2.1652 6.4088e-01      0.128 8.2490e+00     -1.047    95.6472     0.1780  0.000e+00
       1007    251.500     24.646     9.5834  31.861545     2.1708 5.7221e-01      0.143 8.5750e+00     -1.056    95.3881     0.1889  0.000e+00
       1008    251.750     24.404     9.5922  31.863524     2.1769 5.6306e-01      0.139 8.9327e+00     -1.058    95.3979     0.1885  0.000e+00
       1009    252.000     24.161     9.6039  31.866320     2.1828 7.3243e-01      0.299 9.2920e+00     -1.050    95.3865     0.1889  0.000e+00
       1010    252.250     23.910     9.6193  31.868707     2.1879 6.9123e-01      0.168 9.6759e+00     -1.038    95.0818     0.2017  0.000e+00
       1011    252.500     23.653     9.6423  31.872084     2.1953 9.2241e-01      0.160 1.0108e+01     -1.025    95.0915     0.2013  0.000e+00
       1012    252.750     23.381     9.6721  31.872080     2.2000 6.3172e-01      0.177 1.0604e+01     -1.019    95.0964     0.2011  0.000e+00
       1013    253.000     23.101     9.6919  31.871669     2.2054 6.7063e-01      0.141 1.1118e+01     -1.022    95.0834     0.2017  0.000e+00
       1014    253.250     22.822     9.6988  31.871959     2.2121 6.4317e-01      0.162 1.1656e+01     -1.034    94.7265     0.2167  0.000e+00
       1015    253.500     22.556     9.7031  31.873823     2.2193 6.9581e-01      0.156 1.2206e+01     -1.051    94.7265     0.2167  0.000e+00
       1016    253.750     22.303     9.7127  31.875628     2.2237 6.5461e-01      0.147 1.2462e+01     -1.063    94.7298     0.2166  0.000e+00
       1017    254.000     22.062     9.7253  31.879181     2.2312 6.9581e-01      0.172 1.2982e+01     -1.065    93.3774     0.2741  0.000e+00
       1018    254.250     21.824     9.7459  31.881568     2.2398 9.9794e-01      0.160 1.3550e+01     -1.055    93.3774     0.2741  0.000e+00
       1019    254.500     21.585     9.7685  31.882731     2.2476 8.4230e-01      0.158 1.4143e+01     -1.036    93.3741     0.2742  0.000e+00
       1020    254.750     21.322     9.7864  31.884943     2.2560 1.3092e+00      0.172 1.4811e+01     -1.018    93.7293     0.2590  0.000e+00
       1021    255.000     21.043     9.8088  31.885348     2.2647 7.9881e-01      0.149 1.5571e+01     -1.010    93.7473     0.2583  0.000e+00
       1022    255.250     20.760     9.8275  31.883538     2.2742 7.6425e+00      0.183 1.6399e+01     -1.015    93.7440     0.2584  0.000e+00
       1023    255.500     20.484     9.8346  31.884703     2.2845 1.4832e+00      0.210 1.7195e+01     -1.031    93.7424     0.2585  0.000e+00
       1024    255.750     20.216     9.8398  31.885517     2.2925 1.8517e+00      0.175 1.7968e+01     -1.050    93.8972     0.2519  0.000e+00
       1025    256.000     19.957     9.8450  31.886915     2.3024 4.1611e+00      0.164 1.8769e+01     -1.067    93.8939     0.2520  0.000e+00
       1026    256.250     19.711     9.8534  31.888079     2.3108 1.1009e+00      0.153 1.9596e+01     -1.074    93.9004     0.2517  0.000e+00
       1027    256.500     19.468     9.8616  31.889885     2.3202 3.5042e+00      0.210 1.9998e+01     -1.068    93.4654     0.2703  0.000e+00
       1028    256.750     19.220     9.8720  31.893031     2.3292 1.2039e+00      0.156 2.0900e+01     -1.051    93.4621     0.2705  0.000e+00
       1029    257.000     18.967     9.8880  31.894428     2.3378 9.0181e-01      0.128 2.1820e+01     -1.031    93.4621     0.2705  0.000e+00
       1030    257.250     18.697     9.9090  31.896640     2.3462 2.4170e+00      0.143 2.2986e+01     -1.019    94.3925     0.2308  0.000e+00
       1031    257.500     18.431     9.9268  31.894247     2.3542 3.0419e+00      0.177 2.4120e+01     -1.016    94.4039     0.2304  0.000e+00
       1032    257.750     18.164     9.9358  31.892438     2.3612 1.2520e+00      0.164 2.5342e+01     -1.021    94.3909     0.2309  0.000e+00
       1033    258.000     17.907     9.9369  31.892670     2.3695 1.9661e+00      0.427 2.6517e+01     -1.029    94.3941     0.2308  0.000e+00
       1034    258.250     17.657     9.9385  31.892261     2.3777 1.3893e+00      0.267 2.7780e+01     -1.037    93.6381     0.2629  0.000e+00
       1035    258.500     17.404     9.9441  31.893251     2.3853 3.2776e+00      0.193 2.9135e+01     -1.040    93.6348     0.2631  0.000e+00
       1036    258.750     17.140     9.9520  31.892841     2.3935 1.8173e+00      0.278 3.0646e+01     -1.041    93.6316     0.2632  0.000e+00
       1037    259.000     16.873     9.9598  31.894006     2.4020 4.4610e+00      0.189 3.1724e+01     -1.041    93.4344     0.2716  0.000e+00
       1038    259.250     16.603     9.9730  31.894412     2.4109 1.7624e+00      0.177 3.2873e+01     -1.040    93.4426     0.2713  0.000e+00
       1039    259.500     16.333     9.9870  31.894059     2.4182 9.8192e-01      0.210 3.4445e+01     -1.044    93.4230     0.2721  0.000e+00
       1040    259.750     16.070     9.9985  31.894640     2.4255 1.0712e+00      0.149 3.6002e+01     -1.049    93.4230     0.2721  0.000e+00
       1041    260.000     15.813    10.0064  31.894989     2.4333 9.7047e-01      0.160 3.7524e+01     -1.054    93.4051     0.2729  0.000e+00
       1042    260.250     15.556    10.0127  31.894987     2.4397 4.5777e+00      0.175 3.9048e+01     -1.057    93.4165     0.2724  0.000e+00
       1043    260.500     15.299    10.0175  31.895627     2.4460 1.6388e+00      0.141 4.0769e+01     -1.055    93.4132     0.2725  0.000e+00
       1044    260.750     15.038    10.0237  31.895976     2.4520 1.6983e+00      0.158 4.2537e+01     -1.050    93.3986     0.2732  0.000e+00
       1045    261.000     14.781    10.0288  31.896207     2.4582 9.9794e-01      0.317 4.4451e+01     -1.043    93.3855     0.2737  0.000e+00
       1046    261.250     14.520    10.0317  31.896381     2.4651 3.1472e+00      0.191 4.6443e+01     -1.038    93.3904     0.2735  0.000e+00
       1047    261.500     14.255    10.0365  31.896788     2.4717 8.3772e-01      0.156 4.8593e+01     -1.036    94.3550     0.2324  0.000e+00
       1048    261.750     13.996    10.0430  31.896961     2.4787 9.1554e-01      0.137 4.9648e+01     -1.037    94.3583     0.2323  0.000e+00
       1049    262.000     13.735    10.0473  31.897951     2.4838 9.3843e-01      0.143 5.2092e+01     -1.040    94.3453     0.2328  0.000e+00
       1050    262.250     13.487    10.0549  31.898591     2.4890 1.4878e+00      0.141 5.4311e+01     -1.039    94.3518     0.2326  0.000e+00
       1051    262.500     13.232    10.0641  31.897948     2.4939 7.1641e-01      0.143 5.6704e+01     -1.036    94.6663     0.2193  0.000e+00
       1052    262.750     12.984    10.0700  31.898938     2.4977 7.3472e-01      0.134 5.9046e+01     -1.030    94.6614     0.2195  0.000e+00
       1053    263.000     12.732    10.0741  31.899345     2.5059 8.9723e-01      0.164 6.1724e+01     -1.024    94.6646     0.2193  0.000e+00
       1054    263.250     12.469    10.0781  31.900568     2.5102 1.4420e+00      0.143 6.4704e+01     -1.020    94.5701     0.2233  0.000e+00
       1055    263.500     12.197    10.0845  31.901149     2.5148 7.0497e-01      0.185 6.7876e+01     -1.021    94.5701     0.2233  0.000e+00
       1056    263.750     11.923    10.0905  31.901789     2.5201 8.7205e-01      0.160 7.1178e+01     -1.030    94.5815     0.2228  0.000e+00
       1057    264.000     11.653    10.0959  31.902138     2.5247 1.4076e+00      0.147 7.4864e+01     -1.040    94.2231     0.2380  0.000e+00
       1058    264.250     11.381    10.0995  31.902545     2.5286 6.7292e-01      0.139 7.8450e+01     -1.055    94.2279     0.2378  0.000e+00
       1059    264.500     11.128    10.1044  31.905109     2.5329 9.2012e-01      0.134 8.0222e+01     -1.062    94.2198     0.2382  0.000e+00
       1060    264.750     10.887    10.1143  31.908664     2.5367 7.5990e-01      0.217 8.3711e+01     -1.061    94.2198     0.2382  0.000e+00
       1061    265.000     10.650    10.1268  31.909478     2.5415 7.5074e-01      0.185 8.7243e+01     -1.050    94.0047     0.2473  0.000e+00
       1062    265.250     10.404    10.1355  31.910468     2.5454 8.6061e-01      0.166 9.1133e+01     -1.033    94.0226     0.2465  0.000e+00
       1063    265.500     10.150    10.1417  31.911866     2.5485 7.8965e-01      0.141 9.5062e+01     -1.016    94.0112     0.2470  0.000e+00
       1064    265.750      9.888    10.1469  31.915655     2.5531 1.4809e+00      0.168 9.9404e+01     -1.005    93.9167     0.2510  0.000e+00
       1065    266.000      9.616    10.1534  31.914720     2.5568 1.5908e+00      0.158 1.0424e+02     -1.004    93.9249     0.2507  0.000e+00
       1066    266.250      9.342    10.1570  31.913436     2.5595 1.9638e+00      0.164 1.0942e+02     -1.013    93.9281     0.2506  0.000e+00
       1067    266.500      9.059    10.1574  31.914835     2.5636 1.6754e+00      0.195 1.1484e+02     -1.033    93.9135     0.2512  0.000e+00
       1068    266.750      8.790    10.1593  31.917224     2.5670 7.8050e-01      0.153 1.2040e+02     -1.055    93.2519     0.2795  0.000e+00
       1069    267.000      8.531    10.1637  31.919614     2.5702 7.8508e-01      0.177 1.2624e+02     -1.070    93.2535     0.2794  0.000e+00
       1070    267.250      8.282    10.1690  31.920196     2.5740 2.6345e+00      0.170 1.2872e+02     -1.073    93.2535     0.2794  0.000e+00
       1071    267.500      8.041    10.1739  31.922002     2.5776 9.4072e-01      0.181 1.3382e+02     -1.065    93.4165     0.2724  0.000e+00
       1072    267.750      7.797    10.1783  31.924975     2.5817 8.2628e-01      0.158 1.3971e+02     -1.049    93.4100     0.2727  0.000e+00
       1073    268.000      7.551    10.1850  31.926840     2.5850 7.6448e-01      0.191 1.4566e+02     -1.029    93.4181     0.2723  0.000e+00
       1074    268.250      7.284    10.1931  31.928705     2.5871 1.7578e+00      0.179 1.5242e+02     -1.015    93.1558     0.2836  0.000e+00
       1075    268.500      7.023    10.2016  31.928120     2.5908 2.5223e+00      0.189 1.6011e+02     -1.007    93.1541     0.2837  0.000e+00
       1076    268.750      6.753    10.2072  31.927710     2.5933 1.3710e+00      0.200 1.6745e+02     -1.010    93.1541     0.2837  0.000e+00
       1077    269.000      6.481    10.2101  31.928526     2.5956 8.1712e-01      0.185 1.6662e+02     -1.022    93.1525     0.2837  0.000e+00
       1078    269.250      6.213    10.2128  31.928525     2.5973 1.2543e+00      0.345 1.9556e+02     -1.038    92.3215     0.3196  0.000e+00
       1079    269.500      5.950    10.2147  31.931498     2.6003 1.0666e+00      0.196 1.9351e+02     -1.052    92.3085     0.3201  0.000e+00
       1080    269.750      5.691    10.2196  31.935871     2.6015 1.5656e+00      0.181 2.0252e+02     -1.061    92.3215     0.3196  0.000e+00
       1081    270.000      5.434    10.2298  31.935461     2.6034 1.5862e+00      0.366 2.0731e+02     -1.062    93.0401     0.2886  0.000e+00
       1082    270.250      5.177    10.2367  31.937093     2.6052 1.2154e+00      0.210 2.1942e+02     -1.056    93.0336     0.2888  0.000e+00
       1083    270.500      4.925    10.2421  31.937091     2.6088 1.9959e+00      0.250 2.2948e+02     -1.049    93.0287     0.2890  0.000e+00
       1084    270.750      4.673    10.2457  31.939832     2.6110 8.6748e-01      0.212 2.4025e+02     -1.039    92.9619     0.2919  0.000e+00
       1085    271.000      4.429    10.2515  31.941230     2.6136 3.8247e+00      0.185 2.5153e+02     -1.026    92.9602     0.2920  0.000e+00
       1086    271.250      4.170    10.2581  31.941637     2.6161 1.7464e+00      0.229 2.6599e+02     -1.019    92.9554     0.2922  0.000e+00
       1087    271.500      3.909    10.2630  31.945194     2.6196 1.0277e+00      0.227 2.8226e+02     -1.016    92.9586     0.2921  0.000e+00
       1088    271.750      3.633    10.2701  31.946184     2.6216 2.2019e+00      0.237 3.0065e+02     -1.021    91.9484     0.3358  0.000e+00
       1089    272.000      3.354    10.2774  31.950383     2.6249 1.3962e+00      0.246 3.2522e+02     -1.033    91.9516     0.3356  0.000e+00
       1090    272.250      3.076    10.2886  31.951548     2.6273 1.4214e+00      0.433 3.5546e+02     -1.048    91.9418     0.3361  0.000e+00
       1091    272.500      2.808    10.2986  31.952538     2.6289 9.1783e-01      0.357 3.8215e+02     -1.063    91.4514     0.3575  0.000e+00
       1092    272.750      2.560    10.3067  31.953586     2.6318 8.4688e-01      0.336 3.9373e+02     -1.070    91.4481     0.3576  0.000e+00
       1093    273.000      2.320    10.3135  31.956327     2.6339 1.0964e+00      0.504 4.2211e+02     -1.068    91.4416     0.3579  0.000e+00
       1094    273.250      2.073    10.3209  31.960293     2.6361 1.3664e+00      0.353 4.5813e+02     -1.056    90.9055     0.3814  0.000e+00
       1095    273.500      1.812    10.3352  31.957548     2.6384 1.2955e+00      0.309 4.8736e+02     -1.043    90.9055     0.3814  0.000e+00
       1096    273.750      1.546    10.3524  31.946986     2.6404 1.8654e+00      0.292 5.1554e+02     -1.031    90.9169     0.3809  0.000e+00
       1097    274.000      1.279    10.3657  31.907442     2.6436 2.0096e+00      0.288 6.0377e+02     -1.024    90.9072     0.3813  0.000e+00
       1098    274.250      1.018    10.3817  31.908256     2.6459 1.1994e+00      0.233 7.0658e+02     -1.023    91.2330     0.3670  0.000e+00
       1099    274.500      0.761    10.3874  31.886217     2.6489 7.6448e-01      0.254 7.6378e+02     -1.028    91.2363     0.3669  0.000e+00
       1100    274.750      0.526    10.3942  31.844781     2.6513 8.8808e-01      0.246 1.0210e+03     -1.030    91.2298     0.3672  0.000e+00
       1101    275.000      0.378    10.4058  31.803423     2.6544 7.0039e-01      0.263 2.3454e+03     -1.002    91.3487     0.3619  0.000e+00
       1102    275.250      0.331    10.4197  31.704252     2.6576 1.2749e+00      0.254 2.3172e+03     -0.922    91.3520     0.3618  0.000e+00
       1103    275.500      0.259    10.4440  31.642620     2.6609 1.2085e+00      0.235 2.3315e+03     -0.810    91.3667     0.3612  0.000e+00
       1104    275.750      0.187    10.4703  31.622336     2.6655 1.0666e+00      0.746 2.3745e+03     -0.684    91.3536     0.3617  0.000e+00
       1105    276.000      0.120    10.4881  31.604847     2.6686 5.8824e-01      0.296 2.4255e+03     -0.555    81.5884     0.8139  0.000e+00
       1106    276.250      0.044    10.5016  31.596597     2.6735 4.6464e-01      0.698 2.4546e+03     -0.441    81.5868     0.8140  0.000e+00
       1107    276.500     -0.021    10.5118  31.603508     2.6773 0.0000e+00      0.959 2.5282e+03     -0.349    81.5998     0.8134  0.000e+00
       1108    276.750     -0.075    10.5174  31.601532     2.6805 1.3733e-02      0.830 2.5761e+03     -0.288     0.4800    21.3562  0.000e+00
       1109    277.000     -0.154    10.5202  31.595665     2.6823 1.3504e-01      0.000 2.6301e+03     -0.270     0.4719    21.4246  0.000e+00
       1110    277.250     -0.228    10.5208  31.592121     2.6837 1.4649e-01      0.000 2.6603e+03     -0.276     0.4719    21.4246  0.000e+00
       1111    277.500     -0.241    10.5165  31.594329     2.6833 1.5335e-01      0.000 2.6999e+03     -0.261     5.6062    11.5252  0.000e+00
       1112    277.750     -0.238    10.5087  31.609375     2.6831 1.2818e-01      0.000 2.7280e+03     -0.231     5.6079    11.5240  0.000e+00
       1113    278.000     -0.243    10.4951  31.622972     2.6792 1.3962e-01      0.000 2.7506e+03     -0.193     5.6062    11.5252  0.000e+00
       1114    278.250     -0.243    10.4826  31.644358     2.6743 1.5335e-01      0.000 2.7579e+03     -0.148     5.6062    11.5252  0.000e+00
       1115    278.500     -0.243    10.4711  31.667204     2.6696 1.4420e-01      0.000 2.7622e+03     -0.105     7.1672    10.5426  0.000e+00
       1116    278.750     -0.238    10.4597  31.690056     2.6645 1.3962e-01      0.000 2.7574e+03     -0.063     7.1656    10.5435  0.000e+00
       1117    279.000     -0.238    10.4481  31.694767     2.6603 1.3733e-01      0.000 2.7632e+03     -0.025     7.1672    10.5426  0.000e+00
       1118    279.250     -0.242    10.4382  31.680405     2.6552 1.3733e-01      0.000 2.7724e+03     -0.003     7.3090    10.4642  0.000e+00
       1119    279.500     -0.238    10.4319  26.104683     2.6516 1.4878e-01      0.000 2.8013e+03      0.001     7.3106    10.4634  0.000e+00
       1120    279.750     -0.238    10.4282   5.738151     2.6463 1.3962e-01      0.000 2.8395e+03      0.001     7.3172    10.4598  0.000e+00
       1121    280.000     -0.238    10.4242   5.739461     2.6363 1.0529e-01      0.000 2.8766e+03      0.003    11.7900     8.5517  0.000e+00
       1122    280.250     -0.240    10.4220   5.746826     2.6226 1.6022e-02      0.000 2.8832e+03      0.002    11.7981     8.5489  0.000e+00
       1123    280.500     -0.238    10.4206   5.700331     2.6064 8.9265e-02      0.000 2.8842e+03      0.001    11.7851     8.5533  0.000e+00
       1124    280.750     -0.238    10.4181   7.635584     2.5899 1.6251e-01      0.000 2.8675e+03      0.000    11.7965     8.5495  0.000e+00
       1125    281.000     -0.240    10.4148   6.717432     2.5713 1.1444e-01      0.000 2.8255e+03      0.000    17.8661     6.8891  0.000e+00
       1126    281.250     -0.240    10.4099   5.651012     2.5525 1.5793e-01      0.000 2.7477e+03      0.000    17.8710     6.8880  0.000e+00
       1127    281.500     -0.238    10.4040   4.843208     2.5349 1.4649e-01      0.000 2.7337e+03     -0.001    17.8792     6.8861  0.000e+00
       1128    281.750     -0.240    10.3988   4.179822     2.5176 0.0000e+00      0.000 2.8062e+03     -0.001    24.7831     5.5800  0.000e+00
       1129    282.000     -0.240    10.3946   4.113843     2.5021 9.3843e-02      0.000 2.6984e+03     -0.001    24.7847     5.5798  0.000e+00
       1130    282.250     -0.240    10.3911   3.873596     2.4855 1.2360e-01      0.000 2.8330e+03     -0.001    24.7765     5.5811  0.000e+00
       1131    282.500     -0.234    10.3889   3.722819     2.4715 1.6480e-01      0.000 2.8878e+03      0.000    24.7765     5.5811  0.000e+00
       1132    282.750     -0.238    10.3872   3.339002     2.4582 5.2644e-02      0.000 2.8984e+03      0.001    31.9493     4.5641  0.000e+00
       1133    283.000     -0.238    10.3856   4.482338     2.4458 1.0300e-01      0.000 2.8360e+03      0.001    31.9428     4.5649  0.000e+00
       1134    283.250     -0.245    10.3840   5.418948     2.4346 1.8769e-01      0.000 2.7739e+03     -0.001    31.9477     4.5643  0.000e+00
